Gradient Profiler Text Data File: 20240419_BY4742_40.csv
Date: 2024-04-19
Time: 15:29:36

User: jared
Experiment name: 
UV Unit: EM-1
Rotor Manufacturer: Beckman
Rotor Model: SW28.1
Speed: 28 rpm
Gradient: sucrose 10.0% to 50.0% w/v
Time: 4
w2t:  x 10^0
Sample Volume: 18 ml
Number of Tubes: 6
Volume per mm: 0.183 ml/mm

Absorbance Units Full Scale (AUFS): 2.00
Event Mark-triggered gradient; (with distance; auto start and stop)
Delay: No Delay
UV Wavelength: 254 nm
Samples / sec: 10 Hz
EM1 Speed: 0.30 mm/sec
Distance: 3.20 mm
Number: 30
Dead Volume: 0.000000 ml; Distance due to Dead Volume: 0.00 mm
Total Distance: 96.00 mm

Data Columns:
Distance(mm), Absorbance, Fraction Number, Fraction Volume(ml)
0.00, 0.094873, 0, 0.000
0.03, 0.094946, , 
0.06, 0.094980, , 
0.09, 0.094952, , 
0.12, 0.095009, , 
0.15, 0.094990, , 
0.18, 0.094965, , 
0.21, 0.094876, , 
0.24, 0.094898, , 
0.27, 0.094987, , 
0.30, 0.094996, , 
0.33, 0.094949, , 
0.36, 0.094961, , 
0.39, 0.095101, , 
0.42, 0.095228, , 
0.45, 0.095247, , 
0.48, 0.095298, , 
0.51, 0.095418, , 
0.54, 0.095675, , 
0.58, 0.097696, , 
0.60, 0.102593, , 
0.63, 0.116886, , 
0.66, 0.151197, , 
0.69, 0.196162, , 
0.72, 0.262078, , 
0.75, 0.325504, , 
0.78, 0.392273, , 
0.81, 0.460892, , 
0.84, 0.530382, , 
0.87, 0.612091, , 
0.90, 0.682394, , 
0.93, 0.753100, , 
0.96, 0.836106, , 
0.99, 0.895681, , 
1.02, 0.979081, , 
1.05, 1.050719, , 
1.08, 1.122072, , 
1.11, 1.202982, , 
1.14, 1.266357, , 
1.17, 1.326275, , 
1.20, 1.357372, , 
1.23, 1.382830, , 
1.26, 1.400638, , 
1.29, 1.409744, , 
1.32, 1.416589, , 
1.35, 1.420833, , 
1.38, 1.424414, , 
1.41, 1.427900, , 
1.44, 1.431212, , 
1.47, 1.434669, , 
1.50, 1.437283, , 
1.53, 1.439687, , 
1.56, 1.442460, , 
1.59, 1.444556, , 
1.62, 1.446355, , 
1.65, 1.447845, , 
1.68, 1.448838, , 
1.71, 1.449092, , 
1.74, 1.448515, , 
1.77, 1.446948, , 
1.80, 1.444858, , 
1.83, 1.442440, , 
1.86, 1.438260, , 
1.89, 1.433959, , 
1.92, 1.427865, , 
1.95, 1.421690, , 
1.98, 1.414715, , 
2.01, 1.406011, , 
2.04, 1.399331, , 
2.07, 1.388920, , 
2.10, 1.379056, , 
2.13, 1.368290, , 
2.16, 1.354616, , 
2.19, 1.341700, , 
2.22, 1.325599, , 
2.25, 1.313663, , 
2.28, 1.298790, , 
2.31, 1.280691, , 
2.34, 1.264841, , 
2.37, 1.246037, , 
2.40, 1.229692, , 
2.43, 1.213008, , 
2.46, 1.196235, , 
2.49, 1.179357, , 
2.52, 1.159130, , 
2.55, 1.141332, , 
2.58, 1.123496, , 
2.61, 1.102971, , 
2.64, 1.085563, , 
2.67, 1.068419, , 
2.70, 1.051741, , 
2.73, 1.035646, , 
2.76, 1.017322, , 
2.79, 1.001726, , 
2.82, 0.983877, , 
2.85, 0.968750, , 
2.88, 0.956177, , 
2.91, 0.938601, , 
2.94, 0.923696, , 
2.97, 0.909054, , 
3.00, 0.892151, , 
3.03, 0.877789, , 
3.06, 0.861234, , 
3.09, 0.846945, , 
3.12, 0.834936, , 
3.15, 0.818051, , 
3.18, 0.803692, , 
3.19, 0.798960, 1, 0.584
3.21, 0.787176, , 
3.24, 0.775449, , 
3.27, 0.759161, , 
3.30, 0.745408, , 
3.33, 0.729796, , 
3.36, 0.716546, , 
3.39, 0.703637, , 
3.43, 0.689027, , 
3.45, 0.678775, , 
3.48, 0.664374, , 
3.51, 0.652083, , 
3.54, 0.640109, , 
3.57, 0.626470, , 
3.60, 0.615114, , 
3.63, 0.604339, , 
3.66, 0.594179, , 
3.69, 0.584350, , 
3.72, 0.572978, , 
3.75, 0.563409, , 
3.78, 0.552618, , 
3.81, 0.543641, , 
3.84, 0.534795, , 
3.87, 0.524641, , 
3.90, 0.517574, , 
3.93, 0.509099, , 
3.96, 0.499538, , 
3.99, 0.491659, , 
4.02, 0.482873, , 
4.05, 0.475495, , 
4.08, 0.468105, , 
4.11, 0.460670, , 
4.14, 0.453244, , 
4.17, 0.444591, , 
4.20, 0.437229, , 
4.23, 0.430060, , 
4.26, 0.421896, , 
4.30, 0.414880, , 
4.32, 0.407873, , 
4.35, 0.401205, , 
4.38, 0.394900, , 
4.41, 0.387639, , 
4.44, 0.381419, , 
4.47, 0.374383, , 
4.51, 0.368350, , 
4.53, 0.363228, , 
4.56, 0.356215, , 
4.59, 0.350600, , 
4.62, 0.344469, , 
4.65, 0.339242, , 
4.68, 0.334182, , 
4.72, 0.328517, , 
4.74, 0.324546, , 
4.77, 0.319290, , 
4.80, 0.314907, , 
4.83, 0.310777, , 
4.86, 0.306035, , 
4.89, 0.301886, , 
4.93, 0.297144, , 
4.95, 0.293861, , 
4.98, 0.290007, , 
5.01, 0.285779, , 
5.04, 0.282270, , 
5.07, 0.278372, , 
5.10, 0.275010, , 
5.13, 0.272149, , 
5.16, 0.268247, , 
5.19, 0.265044, , 
5.22, 0.261320, , 
5.25, 0.258100, , 
5.28, 0.255020, , 
5.31, 0.251639, , 
5.34, 0.249222, , 
5.37, 0.245863, , 
5.40, 0.243088, , 
5.43, 0.240407, , 
5.46, 0.237172, , 
5.49, 0.234368, , 
5.52, 0.231323, , 
5.55, 0.229280, , 
5.58, 0.226927, , 
5.61, 0.224135, , 
5.64, 0.221870, , 
5.67, 0.219733, , 
5.70, 0.217192, , 
5.73, 0.215035, , 
5.76, 0.212989, , 
5.79, 0.210794, , 
5.82, 0.208827, , 
5.85, 0.206899, , 
5.88, 0.205196, , 
5.91, 0.203454, , 
5.94, 0.201237, , 
5.97, 0.199565, , 
6.00, 0.197723, , 
6.04, 0.196105, , 
6.06, 0.194697, , 
6.09, 0.192657, , 
6.12, 0.191087, , 
6.15, 0.189215, , 
6.18, 0.187474, , 
6.21, 0.185790, , 
6.25, 0.183868, , 
6.27, 0.182491, , 
6.30, 0.180512, , 
6.33, 0.178859, , 
6.36, 0.177241, , 
6.39, 0.175611, 2, 0.585
6.39, 0.175345, , 
6.42, 0.173740, , 
6.45, 0.172217, , 
6.48, 0.170688, , 
6.51, 0.169270, , 
6.54, 0.167618, , 
6.57, 0.166377, , 
6.60, 0.164991, , 
6.63, 0.163656, , 
6.66, 0.162286, , 
6.69, 0.161052, , 
6.72, 0.159935, , 
6.75, 0.158565, , 
6.78, 0.157407, , 
6.81, 0.156338, , 
6.84, 0.155101, , 
6.87, 0.154254, , 
6.90, 0.153036, , 
6.93, 0.152053, , 
6.96, 0.151092, , 
6.99, 0.149836, , 
7.02, 0.148703, , 
7.05, 0.147482, , 
7.08, 0.146699, , 
7.11, 0.145643, , 
7.14, 0.144358, , 
7.17, 0.143429, , 
7.20, 0.142429, , 
7.23, 0.141471, , 
7.26, 0.140564, , 
7.29, 0.139698, , 
7.32, 0.138877, , 
7.35, 0.137748, , 
7.38, 0.136840, , 
7.41, 0.136009, , 
7.44, 0.135064, , 
7.47, 0.134236, , 
7.50, 0.133615, , 
7.53, 0.132895, , 
7.56, 0.132232, , 
7.59, 0.131426, , 
7.62, 0.130801, , 
7.65, 0.130214, , 
7.68, 0.129608, , 
7.71, 0.129012, , 
7.74, 0.128371, , 
7.77, 0.127877, , 
7.80, 0.127242, , 
7.83, 0.126468, , 
7.86, 0.126056, , 
7.89, 0.125640, , 
7.92, 0.125225, , 
7.95, 0.124638, , 
7.98, 0.124105, , 
8.01, 0.123832, , 
8.04, 0.123322, , 
8.07, 0.122792, , 
8.10, 0.122294, , 
8.13, 0.121799, , 
8.16, 0.121177, , 
8.19, 0.120502, , 
8.22, 0.120029, , 
8.25, 0.119655, , 
8.28, 0.119071, , 
8.31, 0.118586, , 
8.34, 0.118256, , 
8.37, 0.117863, , 
8.40, 0.117320, , 
8.43, 0.116806, , 
8.46, 0.116473, , 
8.49, 0.116134, , 
8.52, 0.115722, , 
8.55, 0.115417, , 
8.58, 0.115084, , 
8.61, 0.114637, , 
8.64, 0.114247, , 
8.67, 0.113926, , 
8.70, 0.113708, , 
8.73, 0.113416, , 
8.76, 0.113156, , 
8.79, 0.112965, , 
8.82, 0.112804, , 
8.85, 0.112509, , 
8.88, 0.112163, , 
8.91, 0.111985, , 
8.94, 0.111909, , 
8.97, 0.111757, , 
9.00, 0.111471, , 
9.03, 0.111354, , 
9.06, 0.111227, , 
9.09, 0.110970, , 
9.12, 0.110751, , 
9.15, 0.110621, , 
9.18, 0.110507, , 
9.21, 0.110402, , 
9.24, 0.110288, , 
9.27, 0.110158, , 
9.30, 0.110082, , 
9.33, 0.109942, , 
9.36, 0.109882, , 
9.39, 0.109860, , 
9.42, 0.109879, , 
9.45, 0.109879, , 
9.48, 0.110000, , 
9.51, 0.110180, , 
9.54, 0.110291, , 
9.57, 0.110314, , 
9.59, 0.110345, 3, 0.586
9.60, 0.110364, , 
9.63, 0.110621, , 
9.66, 0.110770, , 
9.69, 0.110818, , 
9.72, 0.110999, , 
9.75, 0.111237, , 
9.78, 0.111474, , 
9.81, 0.111611, , 
9.84, 0.111817, , 
9.87, 0.112106, , 
9.90, 0.112233, , 
9.93, 0.112356, , 
9.96, 0.112547, , 
9.99, 0.112712, , 
10.02, 0.112873, , 
10.05, 0.112934, , 
10.08, 0.113114, , 
10.11, 0.113352, , 
10.14, 0.113505, , 
10.17, 0.113543, , 
10.20, 0.113673, , 
10.23, 0.113863, , 
10.26, 0.113885, , 
10.29, 0.113971, , 
10.32, 0.114110, , 
10.35, 0.114266, , 
10.38, 0.114339, , 
10.41, 0.114380, , 
10.44, 0.114589, , 
10.47, 0.114723, , 
10.50, 0.114675, , 
10.53, 0.114672, , 
10.56, 0.114697, , 
10.59, 0.114767, , 
10.62, 0.114735, , 
10.65, 0.114653, , 
10.68, 0.114719, , 
10.71, 0.114767, , 
10.74, 0.114643, , 
10.77, 0.114485, , 
10.80, 0.114434, , 
10.83, 0.114329, , 
10.86, 0.114180, , 
10.89, 0.114015, , 
10.92, 0.113920, , 
10.95, 0.113790, , 
10.98, 0.113533, , 
11.01, 0.113371, , 
11.04, 0.113210, , 
11.07, 0.112997, , 
11.10, 0.112712, , 
11.13, 0.112483, , 
11.16, 0.112350, , 
11.19, 0.112077, , 
11.22, 0.111776, , 
11.25, 0.111551, , 
11.28, 0.111243, , 
11.31, 0.110999, , 
11.34, 0.110621, , 
11.37, 0.110510, , 
11.40, 0.110320, , 
11.43, 0.109854, , 
11.46, 0.109574, , 
11.49, 0.109333, , 
11.52, 0.109080, , 
11.55, 0.108693, , 
11.58, 0.108303, , 
11.61, 0.108084, , 
11.64, 0.107687, , 
11.67, 0.107367, , 
11.70, 0.107062, , 
11.73, 0.106786, , 
11.76, 0.106368, , 
11.79, 0.105952, , 
11.82, 0.105533, , 
11.85, 0.105159, , 
11.88, 0.104747, , 
11.91, 0.104078, , 
11.94, 0.103754, , 
11.97, 0.103599, , 
12.00, 0.103151, , 
12.03, 0.102726, , 
12.06, 0.102330, , 
12.09, 0.102038, , 
12.12, 0.101565, , 
12.15, 0.100991, , 
12.18, 0.100630, , 
12.21, 0.100208, , 
12.24, 0.099700, , 
12.27, 0.099180, , 
12.30, 0.098768, , 
12.33, 0.098558, , 
12.36, 0.098200, , 
12.39, 0.097813, , 
12.42, 0.097518, , 
12.45, 0.097064, , 
12.48, 0.096643, , 
12.51, 0.096198, , 
12.54, 0.095894, , 
12.57, 0.095596, , 
12.60, 0.095088, , 
12.63, 0.094733, , 
12.66, 0.094340, , 
12.69, 0.093991, , 
12.72, 0.093578, , 
12.75, 0.093195, , 
12.78, 0.092928, 4, 0.584
12.79, 0.092871, , 
12.81, 0.092567, , 
12.84, 0.092113, , 
12.87, 0.091723, , 
12.90, 0.091469, , 
12.93, 0.091123, , 
12.96, 0.090714, , 
12.99, 0.090438, , 
13.02, 0.090089, , 
13.05, 0.089794, , 
13.08, 0.089395, , 
13.11, 0.089106, , 
13.14, 0.088928, , 
13.17, 0.088573, , 
13.20, 0.088237, , 
13.23, 0.087967, , 
13.26, 0.087882, , 
13.29, 0.087618, , 
13.32, 0.087257, , 
13.35, 0.087152, , 
13.38, 0.087032, , 
13.41, 0.086870, , 
13.44, 0.086600, , 
13.47, 0.086445, , 
13.50, 0.086378, , 
13.53, 0.086223, , 
13.56, 0.086048, , 
13.59, 0.085902, , 
13.62, 0.085861, , 
13.65, 0.085630, , 
13.68, 0.085449, , 
13.71, 0.085366, , 
13.74, 0.085277, , 
13.77, 0.085100, , 
13.80, 0.084989, , 
13.83, 0.084929, , 
13.86, 0.084795, , 
13.89, 0.084662, , 
13.92, 0.084532, , 
13.95, 0.084557, , 
13.98, 0.084516, , 
14.01, 0.084358, , 
14.04, 0.084215, , 
14.07, 0.084215, , 
14.10, 0.084186, , 
14.13, 0.083967, , 
14.16, 0.083847, , 
14.19, 0.083875, , 
14.22, 0.083736, , 
14.25, 0.083631, , 
14.28, 0.083619, , 
14.31, 0.083672, , 
14.34, 0.083647, , 
14.37, 0.083406, , 
14.40, 0.083266, , 
14.43, 0.083289, , 
14.46, 0.083174, , 
14.49, 0.082968, , 
14.52, 0.082937, , 
14.55, 0.083035, , 
14.59, 0.082959, , 
14.61, 0.082899, , 
14.64, 0.082807, , 
14.67, 0.082724, , 
14.70, 0.082610, , 
14.73, 0.082432, , 
14.76, 0.082432, , 
14.80, 0.082366, , 
14.82, 0.082223, , 
14.85, 0.082112, , 
14.88, 0.082048, , 
14.91, 0.081903, , 
14.94, 0.081760, , 
14.98, 0.081601, , 
15.00, 0.081516, , 
15.03, 0.081427, , 
15.06, 0.081205, , 
15.09, 0.081043, , 
15.12, 0.080932, , 
15.15, 0.080843, , 
15.18, 0.080608, , 
15.21, 0.080415, , 
15.24, 0.080317, , 
15.27, 0.080183, , 
15.30, 0.080015, , 
15.33, 0.079844, , 
15.36, 0.079777, , 
15.39, 0.079711, , 
15.42, 0.079447, , 
15.45, 0.079340, , 
15.48, 0.079321, , 
15.51, 0.079187, , 
15.54, 0.079060, , 
15.57, 0.078896, , 
15.60, 0.078848, , 
15.63, 0.078743, , 
15.66, 0.078569, , 
15.69, 0.078486, , 
15.72, 0.078363, , 
15.75, 0.078274, , 
15.78, 0.078096, , 
15.81, 0.078080, , 
15.84, 0.078087, , 
15.87, 0.077887, , 
15.90, 0.077643, , 
15.93, 0.077601, , 
15.96, 0.077608, , 
15.99, 0.077547, 5, 0.587
16.00, 0.077544, , 
16.02, 0.077516, , 
16.05, 0.077563, , 
16.08, 0.077630, , 
16.11, 0.077563, , 
16.14, 0.077538, , 
16.17, 0.077595, , 
16.20, 0.077655, , 
16.23, 0.077649, , 
16.26, 0.077763, , 
16.29, 0.077957, , 
16.32, 0.078131, , 
16.35, 0.078198, , 
16.38, 0.078325, , 
16.41, 0.078712, , 
16.44, 0.078924, , 
16.47, 0.079013, , 
16.50, 0.079355, , 
16.53, 0.079717, , 
16.56, 0.080063, , 
16.59, 0.080374, , 
16.62, 0.080713, , 
16.65, 0.081332, , 
16.68, 0.081880, , 
16.71, 0.082337, , 
16.74, 0.082829, , 
16.77, 0.083400, , 
16.80, 0.084161, , 
16.83, 0.084884, , 
16.86, 0.085661, , 
16.89, 0.086438, , 
16.92, 0.087196, , 
16.95, 0.088012, , 
16.98, 0.088887, , 
17.01, 0.089962, , 
17.04, 0.090939, , 
17.07, 0.091812, , 
17.10, 0.093096, , 
17.13, 0.093981, , 
17.16, 0.095110, , 
17.19, 0.096129, , 
17.22, 0.097432, , 
17.25, 0.098898, , 
17.28, 0.100030, , 
17.31, 0.101134, , 
17.34, 0.102609, , 
17.38, 0.103865, , 
17.40, 0.104975, , 
17.43, 0.106136, , 
17.46, 0.107402, , 
17.49, 0.108823, , 
17.52, 0.109901, , 
17.55, 0.111214, , 
17.58, 0.112163, , 
17.61, 0.113251, , 
17.64, 0.114355, , 
17.67, 0.115332, , 
17.70, 0.116670, , 
17.73, 0.117638, , 
17.76, 0.118396, , 
17.79, 0.119097, , 
17.82, 0.119959, , 
17.85, 0.120692, , 
17.88, 0.121399, , 
17.91, 0.122018, , 
17.94, 0.122786, , 
17.97, 0.123322, , 
18.00, 0.123629, , 
18.03, 0.123994, , 
18.06, 0.124276, , 
18.09, 0.124571, , 
18.12, 0.124720, , 
18.15, 0.124949, , 
18.18, 0.125136, , 
18.21, 0.125149, , 
18.24, 0.125044, , 
18.27, 0.125034, , 
18.30, 0.125057, , 
18.33, 0.124828, , 
18.36, 0.124575, , 
18.39, 0.124384, , 
18.42, 0.124169, , 
18.45, 0.123966, , 
18.48, 0.123591, , 
18.51, 0.123322, , 
18.54, 0.122992, , 
18.57, 0.122513, , 
18.60, 0.122005, , 
18.63, 0.121590, , 
18.66, 0.121209, , 
18.69, 0.120797, , 
18.72, 0.120423, , 
18.75, 0.120175, , 
18.78, 0.119810, , 
18.81, 0.119350, , 
18.84, 0.118827, , 
18.87, 0.118440, , 
18.90, 0.118139, , 
18.93, 0.117571, , 
18.96, 0.117101, , 
18.99, 0.116695, , 
19.02, 0.116232, , 
19.05, 0.115741, , 
19.08, 0.115170, , 
19.11, 0.114916, , 
19.14, 0.114491, , 
19.17, 0.113961, , 
19.19, 0.113650, 6, 0.586
19.20, 0.113508, , 
19.23, 0.113073, , 
19.26, 0.112664, , 
19.29, 0.112099, , 
19.32, 0.111684, , 
19.35, 0.111297, , 
19.38, 0.110796, , 
19.41, 0.110314, , 
19.44, 0.109787, , 
19.47, 0.109444, , 
19.50, 0.108975, , 
19.53, 0.108439, , 
19.56, 0.107998, , 
19.59, 0.107617, , 
19.62, 0.107123, , 
19.65, 0.106663, , 
19.68, 0.106311, , 
19.71, 0.106035, , 
19.74, 0.105635, , 
19.77, 0.105219, , 
19.80, 0.104807, , 
19.83, 0.104353, , 
19.86, 0.103944, , 
19.89, 0.103332, , 
19.93, 0.103005, , 
19.95, 0.102729, , 
19.98, 0.102231, , 
20.01, 0.101867, , 
20.04, 0.101619, , 
20.07, 0.101283, , 
20.10, 0.100833, , 
20.14, 0.100278, , 
20.16, 0.099951, , 
20.19, 0.099691, , 
20.22, 0.099228, , 
20.25, 0.098774, , 
20.28, 0.098447, , 
20.31, 0.098159, , 
20.34, 0.097822, , 
20.37, 0.097540, , 
20.40, 0.097204, , 
20.43, 0.096804, , 
20.46, 0.096328, , 
20.49, 0.095967, , 
20.52, 0.095726, , 
20.55, 0.095450, , 
20.58, 0.094996, , 
20.61, 0.094574, , 
20.64, 0.094368, , 
20.67, 0.094073, , 
20.70, 0.093655, , 
20.73, 0.093249, , 
20.76, 0.093115, , 
20.79, 0.092823, , 
20.82, 0.092354, , 
20.85, 0.092078, , 
20.88, 0.091942, , 
20.91, 0.091713, , 
20.94, 0.091374, , 
20.97, 0.091184, , 
21.00, 0.090958, , 
21.03, 0.090670, , 
21.06, 0.090410, , 
21.09, 0.090210, , 
21.12, 0.090083, , 
21.15, 0.089851, , 
21.18, 0.089518, , 
21.21, 0.089280, , 
21.24, 0.089188, , 
21.27, 0.089011, , 
21.30, 0.088808, , 
21.33, 0.088627, , 
21.36, 0.088506, , 
21.39, 0.088395, , 
21.42, 0.088170, , 
21.45, 0.088028, , 
21.48, 0.088123, , 
21.51, 0.088024, , 
21.54, 0.087910, , 
21.57, 0.087872, , 
21.60, 0.087799, , 
21.63, 0.087625, , 
21.66, 0.087482, , 
21.69, 0.087488, , 
21.72, 0.087511, , 
21.75, 0.087583, , 
21.78, 0.087726, , 
21.81, 0.087809, , 
21.84, 0.087923, , 
21.87, 0.088034, , 
21.90, 0.088078, , 
21.93, 0.088313, , 
21.96, 0.088564, , 
21.99, 0.088786, , 
22.02, 0.088973, , 
22.05, 0.089414, , 
22.08, 0.089832, , 
22.11, 0.090210, , 
22.14, 0.090721, , 
22.17, 0.091418, , 
22.20, 0.092376, , 
22.23, 0.093084, , 
22.26, 0.093953, , 
22.29, 0.095031, , 
22.32, 0.096122, , 
22.35, 0.097264, , 
22.38, 0.098596, , 
22.39, 0.099142, 7, 0.586
22.41, 0.100287, , 
22.44, 0.102393, , 
22.47, 0.104315, , 
22.50, 0.106815, , 
22.53, 0.109346, , 
22.56, 0.111617, , 
22.59, 0.114967, , 
22.62, 0.118136, , 
22.65, 0.122300, , 
22.68, 0.126157, , 
22.71, 0.130246, , 
22.74, 0.135461, , 
22.77, 0.139591, , 
22.80, 0.145589, , 
22.83, 0.151051, , 
22.86, 0.156897, , 
22.89, 0.164129, , 
22.92, 0.170666, , 
22.95, 0.178640, , 
22.98, 0.184727, , 
23.01, 0.192356, , 
23.04, 0.201516, , 
23.07, 0.209633, , 
23.10, 0.219526, , 
23.13, 0.228303, , 
23.16, 0.237108, , 
23.19, 0.246136, , 
23.22, 0.255322, , 
23.25, 0.266303, , 
23.28, 0.275812, , 
23.31, 0.285344, , 
23.34, 0.296478, , 
23.37, 0.306082, , 
23.40, 0.315519, , 
23.43, 0.324787, , 
23.46, 0.334147, , 
23.49, 0.344910, , 
23.52, 0.353696, , 
23.55, 0.363593, , 
23.58, 0.372033, , 
23.61, 0.378875, , 
23.64, 0.388074, , 
23.67, 0.395686, , 
23.70, 0.404171, , 
23.73, 0.410997, , 
23.76, 0.417335, , 
23.79, 0.424335, , 
23.82, 0.429163, , 
23.85, 0.435370, , 
23.88, 0.440179, , 
23.91, 0.444597, , 
23.94, 0.449450, , 
23.97, 0.453200, , 
24.00, 0.456936, , 
24.03, 0.459426, , 
24.06, 0.462259, , 
24.09, 0.465028, , 
24.12, 0.466864, , 
24.15, 0.468704, , 
24.18, 0.470106, , 
24.21, 0.471216, , 
24.24, 0.472136, , 
24.27, 0.472574, , 
24.30, 0.472869, , 
24.33, 0.472939, , 
24.36, 0.472542, , 
24.39, 0.471981, , 
24.42, 0.471422, , 
24.45, 0.470614, , 
24.48, 0.469478, , 
24.51, 0.468244, , 
24.54, 0.466906, , 
24.57, 0.465006, , 
24.60, 0.463172, , 
24.63, 0.461187, , 
24.66, 0.458941, , 
24.69, 0.457215, , 
24.72, 0.454519, , 
24.75, 0.452162, , 
24.78, 0.449235, , 
24.81, 0.446494, , 
24.84, 0.443690, , 
24.87, 0.440452, , 
24.90, 0.438136, , 
24.93, 0.434546, , 
24.96, 0.431313, , 
24.99, 0.428164, , 
25.02, 0.424529, , 
25.05, 0.421198, , 
25.08, 0.417779, , 
25.11, 0.414397, , 
25.14, 0.410509, , 
25.17, 0.406997, , 
25.20, 0.402785, , 
25.23, 0.399153, , 
25.26, 0.396086, , 
25.29, 0.391747, , 
25.32, 0.388023, , 
25.35, 0.383636, , 
25.38, 0.379928, , 
25.41, 0.376084, , 
25.44, 0.371576, , 
25.47, 0.368468, , 
25.50, 0.363995, , 
25.53, 0.360348, , 
25.56, 0.356012, , 
25.59, 0.352164, 8, 0.585
25.59, 0.351555, , 
25.62, 0.347819, , 
25.66, 0.343349, , 
25.68, 0.340174, , 
25.71, 0.336390, , 
25.74, 0.332051, , 
25.77, 0.328232, , 
25.80, 0.323943, , 
25.83, 0.320232, , 
25.86, 0.317187, , 
25.89, 0.312978, , 
25.92, 0.309235, , 
25.95, 0.305632, , 
25.98, 0.301461, , 
26.01, 0.297794, , 
26.04, 0.293747, , 
26.07, 0.290416, , 
26.10, 0.287568, , 
26.13, 0.283527, , 
26.16, 0.280199, , 
26.19, 0.276453, , 
26.22, 0.273129, , 
26.25, 0.269757, , 
26.29, 0.266059, , 
26.31, 0.263857, , 
26.34, 0.260419, , 
26.37, 0.256714, , 
26.40, 0.253742, , 
26.43, 0.250767, , 
26.46, 0.247192, , 
26.49, 0.244198, , 
26.52, 0.240988, , 
26.55, 0.238190, , 
26.58, 0.235865, , 
26.61, 0.232658, , 
26.64, 0.230060, , 
26.67, 0.227050, , 
26.70, 0.224379, , 
26.73, 0.221842, , 
26.76, 0.218975, , 
26.79, 0.216983, , 
26.82, 0.214080, , 
26.85, 0.211651, , 
26.88, 0.209398, , 
26.91, 0.206677, , 
26.94, 0.204216, , 
26.97, 0.201497, , 
27.00, 0.199648, , 
27.03, 0.197450, , 
27.06, 0.194744, , 
27.09, 0.192632, , 
27.12, 0.190230, , 
27.15, 0.188181, , 
27.18, 0.186024, , 
27.21, 0.183918, , 
27.24, 0.181885, , 
27.27, 0.179509, , 
27.30, 0.177400, , 
27.33, 0.175478, , 
27.36, 0.173248, , 
27.39, 0.171265, , 
27.42, 0.169305, , 
27.45, 0.167348, , 
27.48, 0.165505, , 
27.51, 0.163253, , 
27.54, 0.161363, , 
27.57, 0.159428, , 
27.60, 0.157693, , 
27.63, 0.156269, , 
27.66, 0.154292, , 
27.69, 0.152710, , 
27.72, 0.150794, , 
27.75, 0.149182, , 
27.78, 0.147584, , 
27.81, 0.145820, , 
27.84, 0.144580, , 
27.87, 0.142683, , 
27.90, 0.141234, , 
27.93, 0.139816, , 
27.96, 0.138109, , 
27.99, 0.136568, , 
28.02, 0.134915, , 
28.05, 0.133906, , 
28.08, 0.132546, , 
28.11, 0.130766, , 
28.14, 0.129351, , 
28.17, 0.127800, , 
28.20, 0.126497, , 
28.23, 0.125234, , 
28.26, 0.124096, , 
28.29, 0.122846, , 
28.32, 0.121412, , 
28.35, 0.120197, , 
28.38, 0.118979, , 
28.41, 0.117783, , 
28.44, 0.116680, , 
28.47, 0.115623, , 
28.50, 0.114529, , 
28.53, 0.113451, , 
28.56, 0.112220, , 
28.59, 0.111087, , 
28.62, 0.109914, , 
28.66, 0.108985, , 
28.68, 0.108204, , 
28.71, 0.107075, , 
28.74, 0.106339, , 
28.77, 0.105489, , 
28.79, 0.105086, 9, 0.586
28.80, 0.104661, , 
28.83, 0.103846, , 
28.87, 0.102869, , 
28.89, 0.102206, , 
28.92, 0.101058, , 
28.95, 0.100227, , 
28.98, 0.099443, , 
29.01, 0.098568, , 
29.04, 0.097848, , 
