Gradient Profiler Text Data File: 20240506_MV_A_40.csv
Date: 2024-05-06
Time: 17:34:15

User: jared
Experiment name: 
UV Unit: EM-1
Rotor Manufacturer: Beckman
Rotor Model: SW28.1
Speed: 28 rpm
Gradient: sucrose 10.0% to 50.0% w/v
Time: 4
w2t:  x 10^0
Sample Volume: 18 ml
Number of Tubes: 6
Volume per mm: 0.183 ml/mm

Absorbance Units Full Scale (AUFS): 2.00
Event Mark-triggered gradient; (with distance; auto start and stop)
Delay: No Delay
UV Wavelength: 254 nm
Samples / sec: 10 Hz
EM1 Speed: 0.30 mm/sec
Distance: 3.20 mm
Number: 30
Dead Volume: 0.000000 ml; Distance due to Dead Volume: 0.00 mm
Total Distance: 96.00 mm

Data Columns:
Distance(mm), Absorbance, Fraction Number, Fraction Volume(ml)
0.00, 0.099345, 0, 0.000
0.03, 0.099316, , 
0.06, 0.099329, , 
0.09, 0.099370, , 
0.12, 0.099307, , 
0.15, 0.099288, , 
0.18, 0.099310, , 
0.21, 0.099386, , 
0.24, 0.099500, , 
0.27, 0.099605, , 
0.30, 0.099726, , 
0.33, 0.099964, , 
0.36, 0.100109, , 
0.39, 0.100186, , 
0.42, 0.100328, , 
0.45, 0.100626, , 
0.48, 0.100928, , 
0.51, 0.101153, , 
0.54, 0.101486, , 
0.58, 0.101784, , 
0.60, 0.102009, , 
0.63, 0.102923, , 
0.66, 0.106257, , 
0.69, 0.118431, , 
0.72, 0.141443, , 
0.75, 0.177333, , 
0.78, 0.223409, , 
0.81, 0.276012, , 
0.84, 0.342008, , 
0.87, 0.400831, , 
0.90, 0.460765, , 
0.93, 0.531546, , 
0.96, 0.592686, , 
0.99, 0.654265, , 
1.02, 0.716159, , 
1.05, 0.778158, , 
1.08, 0.850589, , 
1.11, 0.912772, , 
1.14, 0.985200, , 
1.17, 1.046114, , 
1.20, 1.094032, , 
1.23, 1.151844, , 
1.26, 1.188521, , 
1.29, 1.216310, , 
1.32, 1.230603, , 
1.35, 1.239516, , 
1.38, 1.246183, , 
1.41, 1.249647, , 
1.44, 1.253485, , 
1.47, 1.256337, , 
1.50, 1.258928, , 
1.53, 1.261662, , 
1.56, 1.263800, , 
1.59, 1.266220, , 
1.62, 1.267959, , 
1.65, 1.270112, , 
1.68, 1.272793, , 
1.71, 1.275267, , 
1.74, 1.278274, , 
1.77, 1.280821, , 
1.80, 1.283530, , 
1.83, 1.286321, , 
1.86, 1.289024, , 
1.89, 1.292062, , 
1.92, 1.294546, , 
1.95, 1.296877, , 
1.98, 1.299326, , 
2.02, 1.301242, , 
2.04, 1.302945, , 
2.07, 1.304417, , 
2.10, 1.305702, , 
2.13, 1.306980, , 
2.16, 1.308106, , 
2.19, 1.309349, , 
2.22, 1.310244, , 
2.25, 1.311284, , 
2.28, 1.312382, , 
2.31, 1.313200, , 
2.34, 1.313958, , 
2.37, 1.314539, , 
2.40, 1.315135, , 
2.43, 1.315871, , 
2.46, 1.316670, , 
2.49, 1.317530, , 
2.52, 1.318599, , 
2.55, 1.319553, , 
2.58, 1.320759, , 
2.61, 1.321916, , 
2.64, 1.323154, , 
2.67, 1.324245, , 
2.70, 1.325076, , 
2.73, 1.325669, , 
2.76, 1.325821, , 
2.79, 1.325742, , 
2.82, 1.325415, , 
2.85, 1.325006, , 
2.88, 1.324245, , 
2.91, 1.323306, , 
2.94, 1.322018, , 
2.97, 1.320153, , 
3.00, 1.318294, , 
3.03, 1.315722, , 
3.06, 1.313622, , 
3.09, 1.310843, , 
3.12, 1.307253, , 
3.15, 1.303751, , 
3.18, 1.299155, , 
3.19, 1.298470, 1, 0.584
3.21, 1.294923, , 
3.24, 1.290435, , 
3.27, 1.285506, , 
3.30, 1.280231, , 
3.33, 1.273560, , 
3.36, 1.267388, , 
3.39, 1.260803, , 
3.42, 1.252626, , 
3.45, 1.245368, , 
3.48, 1.237724, , 
3.51, 1.229680, , 
3.54, 1.221204, , 
3.57, 1.210911, , 
3.60, 1.201713, , 
3.63, 1.190554, , 
3.66, 1.180654, , 
3.69, 1.172220, , 
3.72, 1.160088, , 
3.75, 1.149281, , 
3.78, 1.136422, , 
3.81, 1.125250, , 
3.84, 1.113907, , 
3.87, 1.100363, , 
3.90, 1.090600, , 
3.93, 1.076739, , 
3.96, 1.064704, , 
3.99, 1.052584, , 
4.02, 1.038368, , 
4.05, 1.026267, , 
4.09, 1.012076, , 
4.11, 1.001830, , 
4.14, 0.989476, , 
4.17, 0.975126, , 
4.20, 0.962755, , 
4.23, 0.948199, , 
4.26, 0.935749, , 
4.30, 0.923395, , 
4.32, 0.911214, , 
4.35, 0.899037, , 
4.38, 0.884932, , 
4.41, 0.872954, , 
4.44, 0.861025, , 
4.47, 0.847192, , 
4.50, 0.837400, , 
4.53, 0.823786, , 
4.56, 0.812247, , 
4.59, 0.800948, , 
4.62, 0.788026, , 
4.65, 0.777111, , 
4.68, 0.764684, , 
4.71, 0.756100, , 
4.74, 0.746010, , 
4.77, 0.734509, , 
4.80, 0.724927, , 
4.83, 0.713961, , 
4.86, 0.704756, , 
4.89, 0.695691, , 
4.92, 0.686889, , 
4.95, 0.678344, , 
4.98, 0.668729, , 
5.01, 0.660574, , 
5.04, 0.652419, , 
5.07, 0.643015, , 
5.10, 0.635085, , 
5.13, 0.627218, , 
5.16, 0.619314, , 
5.19, 0.611444, , 
5.22, 0.602420, , 
5.25, 0.594684, , 
5.28, 0.585622, , 
5.31, 0.578022, , 
5.34, 0.571846, , 
5.37, 0.563187, , 
5.40, 0.555685, , 
5.43, 0.546934, , 
5.46, 0.539435, , 
5.49, 0.532003, , 
5.52, 0.523455, , 
5.55, 0.517625, , 
5.58, 0.509682, , 
5.61, 0.502945, , 
5.64, 0.496319, , 
5.67, 0.488760, , 
5.70, 0.482458, , 
5.73, 0.476225, , 
5.76, 0.470055, , 
5.79, 0.464079, , 
5.82, 0.457307, , 
5.85, 0.451528, , 
5.88, 0.444908, , 
5.91, 0.439411, , 
5.95, 0.434051, , 
5.97, 0.428785, , 
6.00, 0.423574, , 
6.03, 0.417553, , 
6.06, 0.412320, , 
6.09, 0.407048, , 
6.12, 0.401009, , 
6.15, 0.396749, , 
6.18, 0.390881, , 
6.21, 0.385790, , 
6.24, 0.380661, , 
6.27, 0.374780, , 
6.30, 0.369822, , 
6.33, 0.364163, , 
6.36, 0.360243, , 
6.39, 0.355618, 2, 0.586
6.40, 0.354851, , 
6.42, 0.350207, , 
6.45, 0.345459, , 
6.48, 0.339981, , 
6.51, 0.335426, , 
6.54, 0.331007, , 
6.57, 0.326706, , 
6.60, 0.322564, , 
6.63, 0.317898, , 
6.66, 0.313961, , 
6.69, 0.310009, , 
6.72, 0.305518, , 
6.75, 0.301819, , 
6.78, 0.298184, , 
6.81, 0.294581, , 
6.84, 0.291066, , 
6.87, 0.287079, , 
6.90, 0.283787, , 
6.93, 0.280085, , 
6.96, 0.277043, , 
6.99, 0.274579, , 
7.02, 0.271070, , 
7.05, 0.267997, , 
7.08, 0.265066, , 
7.11, 0.261697, , 
7.14, 0.258824, , 
7.18, 0.255569, , 
7.20, 0.253323, , 
7.23, 0.250228, , 
7.26, 0.247566, , 
7.29, 0.244962, , 
7.32, 0.242079, , 
7.35, 0.239583, , 
7.38, 0.237051, , 
7.41, 0.234549, , 
7.44, 0.232075, , 
7.47, 0.229182, , 
7.50, 0.226676, , 
7.53, 0.223831, , 
7.56, 0.221620, , 
7.59, 0.219752, , 
7.62, 0.217227, , 
7.65, 0.215146, , 
7.68, 0.213119, , 
7.71, 0.210797, , 
7.74, 0.208793, , 
7.77, 0.206544, , 
7.80, 0.204974, , 
7.83, 0.203118, , 
7.86, 0.201034, , 
7.89, 0.199356, , 
7.92, 0.197567, , 
7.95, 0.196057, , 
7.98, 0.194433, , 
8.01, 0.192828, , 
8.04, 0.191337, , 
8.07, 0.189618, , 
8.10, 0.188070, , 
8.13, 0.186481, , 
8.16, 0.184692, , 
8.19, 0.183205, , 
8.22, 0.181666, , 
8.25, 0.180185, , 
8.28, 0.178780, , 
8.31, 0.177159, , 
8.34, 0.175684, , 
8.37, 0.173987, , 
8.41, 0.172617, , 
8.43, 0.171443, , 
8.46, 0.169787, , 
8.49, 0.168455, , 
8.52, 0.166967, , 
8.55, 0.165657, , 
8.58, 0.164278, , 
8.61, 0.162977, , 
8.64, 0.161689, , 
8.67, 0.160224, , 
8.70, 0.159060, , 
8.73, 0.157870, , 
8.76, 0.156478, , 
8.79, 0.155355, , 
8.82, 0.154254, , 
8.85, 0.153208, , 
8.88, 0.152208, , 
8.91, 0.151016, , 
8.94, 0.150010, , 
8.97, 0.148894, , 
9.00, 0.147872, , 
9.03, 0.147022, , 
9.06, 0.145899, , 
9.09, 0.145002, , 
9.12, 0.143996, , 
9.15, 0.143092, , 
9.18, 0.142179, , 
9.21, 0.141243, , 
9.24, 0.140612, , 
9.27, 0.139705, , 
9.30, 0.138890, , 
9.33, 0.138084, , 
9.36, 0.137202, , 
9.39, 0.136460, , 
9.42, 0.135657, , 
9.45, 0.135105, , 
9.48, 0.134379, , 
9.51, 0.133583, , 
9.54, 0.132929, , 
9.57, 0.132254, , 
9.59, 0.131981, 3, 0.585
9.60, 0.131718, , 
9.63, 0.131163, , 
9.66, 0.130557, , 
9.69, 0.130011, , 
9.72, 0.129339, , 
9.75, 0.128812, , 
9.78, 0.128298, , 
9.81, 0.127791, , 
9.85, 0.127337, , 
9.87, 0.126874, , 
9.90, 0.126424, , 
9.93, 0.126018, , 
9.96, 0.125501, , 
9.99, 0.125012, , 
10.02, 0.124527, , 
10.05, 0.124181, , 
10.08, 0.123747, , 
10.11, 0.123233, , 
10.14, 0.122792, , 
10.17, 0.122291, , 
10.20, 0.121783, , 
10.23, 0.121396, , 
10.26, 0.121114, , 
10.29, 0.120813, , 
10.32, 0.120375, , 
10.35, 0.120055, , 
10.38, 0.119706, , 
10.41, 0.119376, , 
10.44, 0.119043, , 
10.47, 0.118656, , 
10.50, 0.118278, , 
10.53, 0.117910, , 
10.56, 0.117400, , 
10.59, 0.116937, , 
10.62, 0.116496, , 
10.65, 0.116175, , 
10.68, 0.115893, , 
10.71, 0.115471, , 
10.74, 0.115144, , 
10.77, 0.114757, , 
10.80, 0.114450, , 
10.83, 0.114104, , 
10.86, 0.113685, , 
10.89, 0.113381, , 
10.92, 0.112962, , 
10.95, 0.112420, , 
10.98, 0.112023, , 
11.01, 0.111535, , 
11.04, 0.111062, , 
11.08, 0.110542, , 
11.10, 0.110291, , 
11.13, 0.110019, , 
11.16, 0.109651, , 
11.19, 0.109260, , 
11.22, 0.108931, , 
11.25, 0.108588, , 
11.28, 0.108252, , 
11.31, 0.107931, , 
11.34, 0.107617, , 
11.37, 0.107348, , 
11.40, 0.107056, , 
11.43, 0.106831, , 
11.46, 0.106634, , 
11.49, 0.106441, , 
11.52, 0.106295, , 
11.55, 0.106089, , 
11.58, 0.105955, , 
11.61, 0.105724, , 
11.64, 0.105505, , 
11.67, 0.105356, , 
11.70, 0.105162, , 
11.73, 0.105010, , 
11.76, 0.104874, , 
11.79, 0.104744, , 
11.82, 0.104623, , 
11.85, 0.104436, , 
11.88, 0.104287, , 
11.91, 0.104106, , 
11.94, 0.104027, , 
11.97, 0.103932, , 
12.00, 0.103821, , 
12.03, 0.103789, , 
12.06, 0.103833, , 
12.09, 0.103808, , 
12.12, 0.103802, , 
12.15, 0.103805, , 
12.18, 0.103824, , 
12.21, 0.103906, , 
12.24, 0.104052, , 
12.27, 0.104189, , 
12.30, 0.104325, , 
12.33, 0.104468, , 
12.36, 0.104680, , 
12.39, 0.104893, , 
12.42, 0.105102, , 
12.45, 0.105327, , 
12.48, 0.105524, , 
12.51, 0.105743, , 
12.54, 0.106050, , 
12.57, 0.106269, , 
12.60, 0.106447, , 
12.63, 0.106672, , 
12.66, 0.106907, , 
12.69, 0.107157, , 
12.72, 0.107341, , 
12.75, 0.107640, , 
12.78, 0.107881, , 
12.79, 0.107909, 4, 0.585
12.81, 0.108042, , 
12.84, 0.108271, , 
12.87, 0.108490, , 
12.90, 0.108712, , 
12.93, 0.108801, , 
12.96, 0.108934, , 
12.99, 0.109143, , 
13.02, 0.109229, , 
13.05, 0.109283, , 
13.08, 0.109454, , 
13.11, 0.109628, , 
13.14, 0.109746, , 
13.17, 0.109793, , 
13.21, 0.109908, , 
13.23, 0.110079, , 
13.26, 0.110190, , 
13.29, 0.110234, , 
13.32, 0.110275, , 
13.35, 0.110298, , 
13.38, 0.110329, , 
13.41, 0.110263, , 
13.44, 0.110133, , 
13.47, 0.110041, , 
13.50, 0.109971, , 
13.53, 0.109854, , 
13.56, 0.109692, , 
13.59, 0.109590, , 
13.63, 0.109479, , 
13.65, 0.109286, , 
13.68, 0.109073, , 
13.71, 0.108912, , 
13.74, 0.108686, , 
13.77, 0.108467, , 
13.80, 0.108198, , 
13.83, 0.108027, , 
13.86, 0.107792, , 
13.89, 0.107443, , 
13.92, 0.107097, , 
13.95, 0.106745, , 
13.98, 0.106460, , 
14.01, 0.106111, , 
14.04, 0.105733, , 
14.07, 0.105368, , 
14.10, 0.104902, , 
14.13, 0.104591, , 
14.16, 0.104268, , 
14.19, 0.103903, , 
14.22, 0.103513, , 
14.25, 0.103056, , 
14.28, 0.102688, , 
14.31, 0.102466, , 
14.34, 0.102092, , 
14.37, 0.101689, , 
14.40, 0.101302, , 
14.43, 0.100912, , 
14.46, 0.100588, , 
14.49, 0.100179, , 
14.52, 0.099884, , 
14.55, 0.099494, , 
14.58, 0.099044, , 
14.61, 0.098698, , 
14.64, 0.098374, , 
14.67, 0.098067, , 
14.71, 0.097689, , 
14.73, 0.097245, , 
14.76, 0.096842, , 
14.79, 0.096478, , 
14.82, 0.096125, , 
14.85, 0.095821, , 
14.88, 0.095405, , 
14.92, 0.095018, , 
14.94, 0.094638, , 
14.97, 0.094257, , 
15.00, 0.093934, , 
15.03, 0.093591, , 
15.06, 0.093274, , 
15.09, 0.092954, , 
15.12, 0.092703, , 
15.15, 0.092576, , 
15.18, 0.092243, , 
15.21, 0.091945, , 
15.24, 0.091669, , 
15.27, 0.091377, , 
15.30, 0.091139, , 
15.33, 0.090993, , 
15.36, 0.090825, , 
15.39, 0.090651, , 
15.42, 0.090426, , 
15.45, 0.090267, , 
15.48, 0.090086, , 
15.51, 0.089921, , 
15.54, 0.089756, , 
15.57, 0.089506, , 
15.60, 0.089306, , 
15.63, 0.089157, , 
15.66, 0.088982, , 
15.69, 0.088801, , 
15.72, 0.088643, , 
15.75, 0.088510, , 
15.78, 0.088361, , 
15.81, 0.088135, , 
15.85, 0.088031, , 
15.87, 0.087866, , 
15.90, 0.087628, , 
15.93, 0.087507, , 
15.96, 0.087482, , 
15.99, 0.087323, , 
16.00, 0.087285, 5, 0.588
16.02, 0.087139, , 
16.05, 0.087057, , 
16.08, 0.087025, , 
16.11, 0.086940, , 
16.14, 0.086752, , 
16.17, 0.086622, , 
16.20, 0.086534, , 
16.23, 0.086470, , 
16.26, 0.086394, , 
16.29, 0.086292, , 
16.32, 0.086181, , 
16.35, 0.086093, , 
16.38, 0.086013, , 
16.41, 0.085985, , 
16.44, 0.085985, , 
16.47, 0.085950, , 
16.50, 0.085893, , 
16.53, 0.085753, , 
16.56, 0.085607, , 
16.59, 0.085528, , 
16.62, 0.085474, , 
16.65, 0.085408, , 
16.69, 0.085262, , 
16.71, 0.085170, , 
16.74, 0.085014, , 
16.77, 0.084862, , 
16.80, 0.084738, , 
16.83, 0.084605, , 
16.86, 0.084513, , 
16.89, 0.084450, , 
16.92, 0.084326, , 
16.95, 0.084145, , 
16.98, 0.083958, , 
17.01, 0.083809, , 
17.04, 0.083704, , 
17.07, 0.083584, , 
17.10, 0.083387, , 
17.13, 0.083244, , 
17.16, 0.083162, , 
17.19, 0.082975, , 
17.22, 0.082800, , 
17.25, 0.082610, , 
17.28, 0.082467, , 
17.31, 0.082353, , 
17.34, 0.082140, , 
17.37, 0.082061, , 
17.40, 0.082017, , 
17.43, 0.081868, , 
17.46, 0.081715, , 
17.49, 0.081614, , 
17.52, 0.081509, , 
17.55, 0.081300, , 
17.58, 0.081167, , 
17.61, 0.081049, , 
17.64, 0.080868, , 
17.67, 0.080650, , 
17.70, 0.080399, , 
17.73, 0.080282, , 
17.76, 0.080142, , 
17.79, 0.079926, , 
17.82, 0.079752, , 
17.85, 0.079654, , 
17.88, 0.079590, , 
17.91, 0.079479, , 
17.94, 0.079311, , 
17.97, 0.079219, , 
18.00, 0.079121, , 
18.03, 0.079003, , 
18.06, 0.078877, , 
18.09, 0.078702, , 
18.12, 0.078632, , 
18.15, 0.078521, , 
18.18, 0.078518, , 
18.21, 0.078540, , 
18.24, 0.078502, , 
18.27, 0.078467, , 
18.30, 0.078493, , 
18.33, 0.078474, , 
18.36, 0.078467, , 
18.39, 0.078413, , 
18.42, 0.078423, , 
18.45, 0.078470, , 
18.49, 0.078458, , 
18.51, 0.078401, , 
18.54, 0.078423, , 
18.57, 0.078448, , 
18.60, 0.078426, , 
18.63, 0.078407, , 
18.66, 0.078423, , 
18.69, 0.078461, , 
18.72, 0.078464, , 
18.75, 0.078597, , 
18.78, 0.078762, , 
18.82, 0.078896, , 
18.84, 0.078991, , 
18.87, 0.079156, , 
18.90, 0.079321, , 
18.93, 0.079460, , 
18.96, 0.079609, , 
18.99, 0.079796, , 
19.02, 0.080117, , 
19.05, 0.080393, , 
19.08, 0.080799, , 
19.11, 0.081056, , 
19.14, 0.081366, , 
19.17, 0.081814, , 
19.19, 0.082080, 6, 0.585
19.20, 0.082182, , 
19.23, 0.082562, , 
19.26, 0.082997, , 
19.29, 0.083425, , 
19.32, 0.084006, , 
19.35, 0.084567, , 
19.38, 0.085185, , 
19.41, 0.085744, , 
19.44, 0.086159, , 
19.47, 0.086790, , 
19.50, 0.087406, , 
19.53, 0.088075, , 
19.56, 0.088592, , 
19.59, 0.089169, , 
19.62, 0.089829, , 
19.65, 0.090245, , 
19.68, 0.090847, , 
19.71, 0.091396, , 
19.74, 0.092002, , 
19.77, 0.092649, , 
19.80, 0.093125, , 
19.83, 0.093715, , 
19.86, 0.094172, , 
19.89, 0.094755, , 
19.92, 0.095326, , 
19.95, 0.095792, , 
19.98, 0.096290, , 
20.01, 0.096608, , 
20.04, 0.096918, , 
20.07, 0.097321, , 
20.10, 0.097708, , 
20.13, 0.098038, , 
20.16, 0.098248, , 
20.19, 0.098527, , 
20.22, 0.098812, , 
20.25, 0.098977, , 
20.28, 0.099088, , 
20.31, 0.099148, , 
20.34, 0.099329, , 
20.37, 0.099516, , 
20.40, 0.099583, , 
20.43, 0.099694, , 
20.46, 0.099745, , 
20.49, 0.099735, , 
20.52, 0.099554, , 
20.55, 0.099437, , 
20.58, 0.099408, , 
20.61, 0.099301, , 
20.64, 0.099161, , 
20.67, 0.099021, , 
20.70, 0.098895, , 
20.73, 0.098736, , 
20.76, 0.098565, , 
20.79, 0.098447, , 
20.82, 0.098330, , 
20.85, 0.098140, , 
20.88, 0.097933, , 
20.91, 0.097781, , 
20.94, 0.097562, , 
20.97, 0.097274, , 
21.00, 0.097045, , 
21.03, 0.096915, , 
21.06, 0.096731, , 
21.09, 0.096557, , 
21.12, 0.096386, , 
21.15, 0.096208, , 
21.18, 0.095961, , 
21.21, 0.095688, , 
21.24, 0.095412, , 
21.28, 0.095180, , 
21.30, 0.095069, , 
21.33, 0.094787, , 
21.36, 0.094565, , 
21.39, 0.094375, , 
21.42, 0.094108, , 
21.45, 0.093946, , 
21.48, 0.093788, , 
21.51, 0.093597, , 
21.54, 0.093458, , 
21.57, 0.093176, , 
21.60, 0.092963, , 
21.63, 0.092722, , 
21.66, 0.092519, , 
21.69, 0.092310, , 
21.72, 0.092062, , 
21.75, 0.091881, , 
21.78, 0.091631, , 
21.81, 0.091352, , 
21.84, 0.091120, , 
21.87, 0.090958, , 
21.90, 0.090774, , 
21.93, 0.090460, , 
21.96, 0.090257, , 
21.99, 0.090042, , 
22.02, 0.089772, , 
22.05, 0.089575, , 
22.08, 0.089306, , 
22.11, 0.089131, , 
22.14, 0.088928, , 
22.17, 0.088649, , 
22.20, 0.088430, , 
22.23, 0.088139, , 
22.26, 0.087821, , 
22.29, 0.087517, , 
22.32, 0.087254, , 
22.35, 0.087079, , 
22.38, 0.086876, , 
22.39, 0.086749, 7, 0.586
22.41, 0.086578, , 
22.44, 0.086362, , 
22.47, 0.086089, , 
22.50, 0.085833, , 
22.53, 0.085538, , 
22.56, 0.085274, , 
22.59, 0.085046, , 
22.62, 0.084757, , 
22.65, 0.084500, , 
22.68, 0.084320, , 
22.71, 0.084142, , 
22.74, 0.083828, , 
22.77, 0.083577, , 
22.80, 0.083406, , 
22.83, 0.083187, , 
22.87, 0.083019, , 
22.89, 0.082879, , 
22.92, 0.082721, , 
22.95, 0.082591, , 
22.98, 0.082426, , 
23.01, 0.082229, , 
23.04, 0.082067, , 
23.07, 0.081975, , 
23.10, 0.081820, , 
23.13, 0.081674, , 
23.16, 0.081557, , 
23.19, 0.081382, , 
23.22, 0.081214, , 
23.25, 0.081122, , 
23.28, 0.080941, , 
23.31, 0.080789, , 
23.34, 0.080602, , 
23.37, 0.080485, , 
23.40, 0.080456, , 
23.43, 0.080364, , 
23.46, 0.080187, , 
23.49, 0.080037, , 
23.52, 0.080028, , 
23.55, 0.080003, , 
23.58, 0.079939, , 
23.61, 0.079914, , 
23.64, 0.079920, , 
23.67, 0.079939, , 
23.70, 0.079923, , 
23.73, 0.079920, , 
23.76, 0.079964, , 
23.79, 0.080006, , 
23.82, 0.079939, , 
23.85, 0.080028, , 
23.88, 0.080225, , 
23.91, 0.080339, , 
23.94, 0.080443, , 
23.97, 0.080612, , 
24.00, 0.080767, , 
24.03, 0.080941, , 
24.06, 0.081106, , 
24.09, 0.081405, , 
24.12, 0.081700, , 
24.15, 0.081960, , 
24.18, 0.082255, , 
24.21, 0.082537, , 
24.24, 0.082845, , 
24.27, 0.083317, , 
24.30, 0.083742, , 
24.33, 0.084358, , 
24.36, 0.084948, , 
24.39, 0.085471, , 
24.42, 0.086270, , 
24.45, 0.087073, , 
24.48, 0.088078, , 
24.51, 0.088878, , 
24.54, 0.090194, , 
24.57, 0.091383, , 
24.60, 0.092957, , 
24.63, 0.094482, , 
24.66, 0.096157, , 
24.69, 0.098092, , 
24.72, 0.100262, , 
24.75, 0.103009, , 
24.78, 0.105552, , 
24.81, 0.108395, , 
24.84, 0.112083, , 
24.87, 0.115531, , 
24.90, 0.119233, , 
24.93, 0.123439, , 
24.96, 0.127943, , 
24.99, 0.133637, , 
25.02, 0.138972, , 
25.05, 0.145706, , 
25.08, 0.150860, , 
25.11, 0.157382, , 
25.14, 0.165496, , 
25.17, 0.172953, , 
25.20, 0.182205, , 
25.23, 0.190529, , 
25.26, 0.199309, , 
25.29, 0.208555, , 
25.32, 0.218147, , 
25.35, 0.229794, , 
25.38, 0.240223, , 
25.41, 0.250992, , 
25.44, 0.263899, , 
25.47, 0.275169, , 
25.50, 0.286664, , 
25.53, 0.298384, , 
25.56, 0.310177, , 
25.59, 0.324051, 8, 0.585
25.60, 0.326065, , 
25.62, 0.335994, , 
25.65, 0.349925, , 
25.68, 0.361873, , 
25.71, 0.371725, , 
25.74, 0.385450, , 
25.77, 0.397148, , 
25.80, 0.410512, , 
25.83, 0.421683, , 
25.86, 0.432627, , 
25.89, 0.445140, , 
25.92, 0.455569, , 
25.95, 0.465592, , 
25.98, 0.475308, , 
26.01, 0.484754, , 
26.04, 0.495260, , 
26.07, 0.503903, , 
26.10, 0.512214, , 
26.13, 0.521463, , 
26.17, 0.528895, , 
26.19, 0.535838, , 
26.22, 0.542499, , 
26.25, 0.549785, , 
26.28, 0.554648, , 
26.31, 0.560906, , 
26.34, 0.565841, , 
26.37, 0.570365, , 
26.40, 0.575024, , 
26.43, 0.578662, , 
26.46, 0.582408, , 
26.49, 0.584832, , 
26.52, 0.587392, , 
26.55, 0.589862, , 
26.58, 0.591709, , 
26.61, 0.593564, , 
26.64, 0.594728, , 
26.67, 0.595654, , 
26.70, 0.596394, , 
26.73, 0.596806, , 
26.76, 0.596939, , 
26.79, 0.596822, , 
26.82, 0.596539, , 
26.85, 0.595911, , 
26.88, 0.595175, , 
26.91, 0.594265, , 
26.94, 0.593196, , 
26.97, 0.591912, , 
27.00, 0.590196, , 
27.03, 0.588578, , 
27.06, 0.586662, , 
27.09, 0.584889, , 
27.12, 0.583293, , 
27.15, 0.580914, , 
27.18, 0.578834, , 
27.21, 0.576283, , 
27.24, 0.573895, , 
27.27, 0.571351, , 
27.31, 0.568306, , 
27.33, 0.566102, , 
27.36, 0.562876, , 
27.39, 0.559986, , 
27.42, 0.557046, , 
27.45, 0.553557, , 
27.48, 0.550540, , 
27.52, 0.546915, , 
27.54, 0.544247, , 
27.57, 0.540964, , 
27.60, 0.537075, , 
27.63, 0.533722, , 
27.66, 0.529653, , 
27.69, 0.526056, , 
27.73, 0.522421, , 
27.75, 0.518764, , 
27.78, 0.515106, , 
27.81, 0.510691, , 
27.84, 0.506821, , 
27.87, 0.502958, , 
27.90, 0.498403, , 
27.93, 0.495098, , 
27.96, 0.490381, , 
27.99, 0.486283, , 
28.02, 0.482185, , 
28.05, 0.477316, , 
28.08, 0.473088, , 
28.11, 0.468212, , 
28.14, 0.464692, , 
28.17, 0.460492, , 
28.20, 0.455591, , 
28.23, 0.451408, , 
28.26, 0.447265, , 
28.29, 0.442406, , 
28.32, 0.438266, , 
28.35, 0.434101, , 
28.38, 0.429981, , 
28.41, 0.425965, , 
28.44, 0.421252, , 
28.47, 0.417322, , 
28.50, 0.412738, , 
28.53, 0.408824, , 
28.56, 0.405630, , 
28.59, 0.401228, , 
28.62, 0.397434, , 
28.65, 0.393022, , 
28.68, 0.389247, , 
28.71, 0.385520, , 
28.74, 0.381175, , 
28.77, 0.378450, , 
28.79, 0.375142, 9, 0.586
28.80, 0.373876, , 
28.83, 0.370320, , 
28.86, 0.366812, , 
28.89, 0.362625, , 
28.92, 0.358942, , 
28.95, 0.354746, , 
28.98, 0.351841, , 
29.01, 0.348364, , 
29.04, 0.344386, , 
