Gradient Profiler Text Data File: 20240906_yHG005_rep2_sample_5_30C.csv
Date: 2024-09-06
Time: 18:23:55

User: jared
Experiment name: 
UV Unit: EM-1
Rotor Manufacturer: Beckman
Rotor Model: SW28.1
Speed: 28 rpm
Gradient: sucrose 10.0% to 50.0% w/v
Time: 4
w2t:  x 10^0
Sample Volume: 18 ml
Number of Tubes: 6
Volume per mm: 0.183 ml/mm

Absorbance Units Full Scale (AUFS): 2.00
Event Mark-triggered gradient; (with distance; auto start and stop)
Delay: No Delay
UV Wavelength: 254 nm
Samples / sec: 10 Hz
EM1 Speed: 0.30 mm/sec
Distance: 3.20 mm
Number: 30
Dead Volume: 0.000000 ml; Distance due to Dead Volume: 0.00 mm
Total Distance: 96.00 mm

Data Columns:
Distance(mm), Absorbance, Fraction Number, Fraction Volume(ml)
0.00, 0.060092, 0, 0.000
0.03, 0.060111, , 
0.06, 0.060095, , 
0.09, 0.060121, , 
0.12, 0.060146, , 
0.15, 0.060149, , 
0.18, 0.060111, , 
0.21, 0.060035, , 
0.24, 0.059937, , 
0.27, 0.059854, , 
0.30, 0.059775, , 
0.33, 0.059810, , 
0.36, 0.059969, , 
0.39, 0.060073, , 
0.42, 0.060083, , 
0.45, 0.060083, , 
0.48, 0.060105, , 
0.51, 0.060206, , 
0.54, 0.060632, , 
0.57, 0.062351, , 
0.60, 0.068314, , 
0.63, 0.087244, , 
0.66, 0.117974, , 
0.69, 0.160776, , 
0.72, 0.220878, , 
0.75, 0.267883, , 
0.78, 0.326462, , 
0.81, 0.396876, , 
0.84, 0.457973, , 
0.87, 0.529599, , 
0.90, 0.591280, , 
0.93, 0.653380, , 
0.97, 0.726237, , 
0.99, 0.778621, , 
1.02, 0.852273, , 
1.05, 0.915538, , 
1.08, 0.978523, , 
1.11, 1.049298, , 
1.14, 1.103621, , 
1.17, 1.146972, , 
1.20, 1.177482, , 
1.23, 1.197247, , 
1.26, 1.211213, , 
1.29, 1.218702, , 
1.32, 1.223939, , 
1.35, 1.228503, , 
1.38, 1.231903, , 
1.41, 1.235358, , 
1.44, 1.238901, , 
1.47, 1.242450, , 
1.50, 1.246447, , 
1.53, 1.249828, , 
1.56, 1.253745, , 
1.59, 1.257174, , 
1.62, 1.260153, , 
1.65, 1.264558, , 
1.68, 1.268584, , 
1.71, 1.273319, , 
1.74, 1.277291, , 
1.77, 1.281224, , 
1.80, 1.285788, , 
1.83, 1.289769, , 
1.86, 1.293131, , 
1.89, 1.297775, , 
1.92, 1.301334, , 
1.95, 1.304664, , 
1.98, 1.306888, , 
2.01, 1.308778, , 
2.04, 1.310989, , 
2.07, 1.313057, , 
2.10, 1.315328, , 
2.13, 1.317663, , 
2.16, 1.319877, , 
2.19, 1.322053, , 
2.22, 1.323750, , 
2.25, 1.325523, , 
2.28, 1.327594, , 
2.32, 1.329313, , 
2.34, 1.331014, , 
2.37, 1.332771, , 
2.40, 1.334652, , 
2.43, 1.337307, , 
2.46, 1.340123, , 
2.49, 1.343961, , 
2.53, 1.347346, , 
2.55, 1.350064, , 
2.58, 1.353680, , 
2.61, 1.356500, , 
2.64, 1.359564, , 
2.67, 1.362007, , 
2.70, 1.364170, , 
2.74, 1.366393, , 
2.76, 1.367792, , 
2.79, 1.369695, , 
2.82, 1.371513, , 
2.85, 1.373467, , 
2.88, 1.375253, , 
2.91, 1.376946, , 
2.94, 1.377936, , 
2.97, 1.378621, , 
3.00, 1.379189, , 
3.03, 1.379738, , 
3.06, 1.380366, , 
3.09, 1.380892, , 
3.12, 1.381137, , 
3.15, 1.380934, , 
3.18, 1.380562, , 
3.19, 1.380508, 1, 0.583
3.21, 1.380261, , 
3.24, 1.380137, , 
3.27, 1.379947, , 
3.30, 1.379658, , 
3.33, 1.379084, , 
3.36, 1.378038, , 
3.39, 1.376981, , 
3.42, 1.375738, , 
3.45, 1.374929, , 
3.48, 1.374000, , 
3.51, 1.372778, , 
3.54, 1.371557, , 
3.57, 1.370158, , 
3.60, 1.368271, , 
3.63, 1.366517, , 
3.66, 1.364414, , 
3.69, 1.362815, , 
3.72, 1.360735, , 
3.75, 1.358070, , 
3.78, 1.355545, , 
3.81, 1.352475, , 
3.84, 1.349668, , 
3.87, 1.346711, , 
3.90, 1.343524, , 
3.93, 1.340041, , 
3.96, 1.335740, , 
3.99, 1.331838, , 
4.02, 1.327778, , 
4.05, 1.323531, , 
4.08, 1.318218, , 
4.11, 1.313438, , 
4.14, 1.308496, , 
4.17, 1.302555, , 
4.20, 1.297331, , 
4.24, 1.291142, , 
4.26, 1.286518, , 
4.29, 1.280875, , 
4.32, 1.273938, , 
4.35, 1.267680, , 
4.38, 1.260159, , 
4.41, 1.253542, , 
4.45, 1.246796, , 
4.47, 1.239935, , 
4.50, 1.232855, , 
4.53, 1.225486, , 
4.56, 1.216713, , 
4.59, 1.209164, , 
4.62, 1.201513, , 
4.65, 1.192368, , 
4.68, 1.184347, , 
4.71, 1.176179, , 
4.74, 1.167795, , 
4.77, 1.157912, , 
4.80, 1.149468, , 
4.83, 1.141132, , 
4.86, 1.131445, , 
4.89, 1.123030, , 
4.92, 1.114618, , 
4.95, 1.106260, , 
4.98, 1.097873, , 
5.01, 1.088012, , 
5.04, 1.079571, , 
5.07, 1.071121, , 
5.10, 1.061250, , 
5.13, 1.054161, , 
5.16, 1.044287, , 
5.19, 1.035960, , 
5.22, 1.027666, , 
5.25, 1.017893, , 
5.28, 1.009449, , 
5.31, 0.999426, , 
5.35, 0.990703, , 
5.37, 0.983436, , 
5.40, 0.973295, , 
5.43, 0.964687, , 
5.46, 0.956078, , 
5.49, 0.945934, , 
5.52, 0.937243, , 
5.55, 0.928647, , 
5.58, 0.918542, , 
5.61, 0.909958, , 
5.64, 0.901400, , 
5.68, 0.891323, , 
5.70, 0.883996, , 
5.73, 0.873728, , 
5.76, 0.865044, , 
5.79, 0.856568, , 
5.82, 0.846897, , 
5.85, 0.838739, , 
5.88, 0.830546, , 
5.91, 0.822270, , 
5.94, 0.813918, , 
5.97, 0.804228, , 
6.00, 0.796118, , 
6.03, 0.786865, , 
6.06, 0.779021, , 
6.09, 0.771208, , 
6.12, 0.763456, , 
6.15, 0.755809, , 
6.18, 0.748120, , 
6.21, 0.739204, , 
6.24, 0.731594, , 
6.27, 0.722640, , 
6.30, 0.714926, , 
6.33, 0.707243, , 
6.36, 0.699558, , 
6.39, 0.693223, 2, 0.586
6.39, 0.691961, , 
6.42, 0.683225, , 
6.45, 0.675870, , 
6.48, 0.668571, , 
6.51, 0.661272, , 
6.54, 0.652689, , 
6.57, 0.645298, , 
6.60, 0.637974, , 
6.63, 0.629340, , 
6.66, 0.621817, , 
6.69, 0.614318, , 
6.72, 0.606893, , 
6.75, 0.599559, , 
6.78, 0.591245, , 
6.81, 0.584362, , 
6.84, 0.577552, , 
6.87, 0.569730, , 
6.90, 0.563129, , 
6.94, 0.555403, , 
6.96, 0.549950, , 
6.99, 0.543448, , 
7.02, 0.535984, , 
7.05, 0.529830, , 
7.09, 0.522874, , 
7.11, 0.516921, , 
7.14, 0.510954, , 
7.17, 0.504030, , 
7.20, 0.499063, , 
7.23, 0.493176, , 
7.26, 0.486394, , 
7.29, 0.480643, , 
7.32, 0.473960, , 
7.35, 0.468282, , 
7.38, 0.462585, , 
7.41, 0.456914, , 
7.44, 0.451319, , 
7.47, 0.444892, , 
7.50, 0.439418, , 
7.53, 0.433860, , 
7.56, 0.427218, , 
7.59, 0.422381, , 
7.62, 0.415615, , 
7.65, 0.409969, , 
7.68, 0.404514, , 
7.71, 0.398408, , 
7.74, 0.393247, , 
7.77, 0.387373, , 
7.81, 0.382313, , 
7.83, 0.378072, , 
7.86, 0.372217, , 
7.89, 0.367329, , 
7.92, 0.361740, , 
7.95, 0.357011, , 
7.98, 0.352326, , 
8.02, 0.346965, , 
8.04, 0.343216, , 
8.07, 0.338125, , 
8.10, 0.333938, , 
8.13, 0.329767, , 
8.16, 0.324787, , 
8.19, 0.320495, , 
8.22, 0.316651, , 
8.25, 0.312071, , 
8.28, 0.307890, , 
8.31, 0.303063, , 
8.34, 0.298980, , 
8.37, 0.294146, , 
8.40, 0.289972, , 
8.44, 0.285985, , 
8.46, 0.282121, , 
8.49, 0.278344, , 
8.52, 0.273820, , 
8.55, 0.269814, , 
8.58, 0.265808, , 
8.61, 0.261142, , 
8.64, 0.257219, , 
8.67, 0.254078, , 
8.70, 0.249898, , 
8.73, 0.246428, , 
8.76, 0.242856, , 
8.79, 0.238685, , 
8.82, 0.235189, , 
8.85, 0.231190, , 
8.88, 0.227840, , 
8.91, 0.224573, , 
8.94, 0.221360, , 
8.97, 0.218229, , 
9.00, 0.214569, , 
9.03, 0.211517, , 
9.06, 0.208650, , 
9.09, 0.205354, , 
9.12, 0.202515, , 
9.15, 0.199718, , 
9.18, 0.197047, , 
9.21, 0.194360, , 
9.24, 0.191207, , 
9.27, 0.188581, , 
9.30, 0.185971, , 
9.33, 0.183005, , 
9.36, 0.180569, , 
9.39, 0.178228, , 
9.42, 0.176119, , 
9.45, 0.173571, , 
9.48, 0.170786, , 
9.51, 0.168417, , 
9.54, 0.165724, , 
9.57, 0.163421, , 
9.58, 0.162654, 3, 0.585
9.60, 0.161531, , 
9.63, 0.158942, , 
9.66, 0.156770, , 
9.69, 0.154270, , 
9.72, 0.152215, , 
9.75, 0.150210, , 
9.78, 0.147974, , 
9.81, 0.146397, , 
9.84, 0.144234, , 
9.87, 0.142334, , 
9.90, 0.140485, , 
9.93, 0.138426, , 
9.96, 0.136748, , 
9.99, 0.134956, , 
10.02, 0.133713, , 
10.05, 0.132194, , 
10.08, 0.130449, , 
10.11, 0.129044, , 
10.14, 0.127382, , 
10.17, 0.125961, , 
10.20, 0.124505, , 
10.23, 0.123071, , 
10.26, 0.121663, , 
10.29, 0.120077, , 
10.32, 0.118745, , 
10.35, 0.117463, , 
10.38, 0.116007, , 
10.41, 0.114716, , 
10.44, 0.113390, , 
10.47, 0.112061, , 
10.50, 0.110713, , 
10.53, 0.109102, , 
10.56, 0.107798, , 
10.59, 0.106529, , 
10.62, 0.105001, , 
10.65, 0.103640, , 
10.68, 0.102377, , 
10.71, 0.101213, , 
10.74, 0.100021, , 
10.77, 0.098562, , 
10.80, 0.097432, , 
10.83, 0.096106, , 
10.86, 0.094933, , 
10.89, 0.094000, , 
10.92, 0.092735, , 
10.95, 0.091704, , 
10.98, 0.090549, , 
11.01, 0.089750, , 
11.04, 0.088678, , 
11.07, 0.087821, , 
11.10, 0.086781, , 
11.13, 0.085902, , 
11.16, 0.085059, , 
11.20, 0.084323, , 
11.22, 0.083638, , 
11.25, 0.082699, , 
11.28, 0.081893, , 
11.31, 0.080884, , 
11.34, 0.080028, , 
11.37, 0.079238, , 
11.40, 0.078528, , 
11.43, 0.077785, , 
11.46, 0.076780, , 
11.49, 0.075927, , 
11.52, 0.075178, , 
11.55, 0.074322, , 
11.58, 0.073503, , 
11.61, 0.072707, , 
11.64, 0.071800, , 
11.67, 0.071096, , 
11.70, 0.070426, , 
11.73, 0.069561, , 
11.76, 0.068866, , 
11.79, 0.068171, , 
11.82, 0.067353, , 
11.85, 0.066703, , 
11.88, 0.065973, , 
11.91, 0.065326, , 
11.94, 0.064838, , 
11.97, 0.064260, , 
12.00, 0.063721, , 
12.03, 0.063131, , 
12.06, 0.062563, , 
12.09, 0.062075, , 
12.12, 0.061542, , 
12.15, 0.061139, , 
12.18, 0.060578, , 
12.21, 0.060134, , 
12.24, 0.059718, , 
12.27, 0.059448, , 
12.30, 0.059065, , 
12.33, 0.058697, , 
12.36, 0.058313, , 
12.39, 0.057799, , 
12.42, 0.057345, , 
12.46, 0.056866, , 
12.48, 0.056530, , 
12.51, 0.056061, , 
12.54, 0.055537, , 
12.57, 0.055049, , 
12.60, 0.054329, , 
12.63, 0.053809, , 
12.66, 0.053311, , 
12.69, 0.052813, , 
12.72, 0.052340, , 
12.75, 0.051814, , 
12.78, 0.051404, , 
12.79, 0.051341, 4, 0.587
12.81, 0.051024, , 
12.84, 0.050640, , 
12.87, 0.050332, , 
12.90, 0.050018, , 
12.93, 0.049577, , 
12.96, 0.049194, , 
12.99, 0.048746, , 
13.02, 0.048445, , 
13.05, 0.048163, , 
13.08, 0.047861, , 
13.11, 0.047601, , 
13.15, 0.047401, , 
13.17, 0.047214, , 
13.20, 0.046980, , 
13.23, 0.046685, , 
13.26, 0.046482, , 
13.29, 0.046231, , 
13.32, 0.045987, , 
13.36, 0.045739, , 
13.38, 0.045463, , 
13.41, 0.045137, , 
13.44, 0.044696, , 
13.47, 0.044407, , 
13.50, 0.044122, , 
13.53, 0.043716, , 
13.57, 0.043294, , 
13.59, 0.042983, , 
13.62, 0.042729, , 
13.65, 0.042383, , 
13.68, 0.042012, , 
13.71, 0.041730, , 
13.74, 0.041473, , 
13.78, 0.041073, , 
13.80, 0.040807, , 
13.83, 0.040496, , 
13.86, 0.040277, , 
13.89, 0.040062, , 
13.92, 0.039798, , 
13.95, 0.039678, , 
13.98, 0.039567, , 
14.01, 0.039459, , 
14.04, 0.039284, , 
14.07, 0.039167, , 
14.10, 0.039047, , 
14.13, 0.038824, , 
14.16, 0.038720, , 
14.19, 0.038609, , 
14.22, 0.038564, , 
14.25, 0.038504, , 
14.28, 0.038377, , 
14.31, 0.038279, , 
14.34, 0.038146, , 
14.37, 0.038025, , 
14.40, 0.037927, , 
14.43, 0.037816, , 
14.46, 0.037667, , 
14.49, 0.037448, , 
14.52, 0.037283, , 
14.55, 0.037185, , 
14.58, 0.037051, , 
14.61, 0.036848, , 
14.64, 0.036680, , 
14.67, 0.036595, , 
14.70, 0.036515, , 
14.73, 0.036474, , 
14.76, 0.036401, , 
14.79, 0.036243, , 
14.82, 0.036087, , 
14.85, 0.035986, , 
14.88, 0.035976, , 
14.91, 0.035970, , 
14.94, 0.035929, , 
14.97, 0.035890, , 
15.00, 0.035811, , 
15.03, 0.035672, , 
15.06, 0.035538, , 
15.09, 0.035456, , 
15.12, 0.035462, , 
15.15, 0.035484, , 
15.18, 0.035399, , 
15.21, 0.035348, , 
15.24, 0.035377, , 
15.27, 0.035411, , 
15.30, 0.035386, , 
15.33, 0.035389, , 
15.36, 0.035418, , 
15.39, 0.035437, , 
15.42, 0.035370, , 
15.45, 0.035402, , 
15.48, 0.035418, , 
15.51, 0.035364, , 
15.54, 0.035208, , 
15.57, 0.035066, , 
15.60, 0.035018, , 
15.63, 0.034967, , 
15.66, 0.034904, , 
15.70, 0.034885, , 
15.72, 0.034929, , 
15.75, 0.034913, , 
15.78, 0.034913, , 
15.81, 0.034917, , 
15.84, 0.034907, , 
15.87, 0.034872, , 
15.91, 0.034860, , 
15.93, 0.034856, , 
15.96, 0.034958, , 
15.99, 0.034961, 5, 0.586
15.99, 0.034952, , 
16.02, 0.034904, , 
16.05, 0.034948, , 
16.08, 0.035021, , 
16.11, 0.035091, , 
16.14, 0.035218, , 
16.17, 0.035326, , 
16.20, 0.035418, , 
16.23, 0.035389, , 
16.26, 0.035405, , 
16.29, 0.035453, , 
16.32, 0.035507, , 
16.35, 0.035589, , 
16.38, 0.035710, , 
16.41, 0.035852, , 
16.44, 0.035935, , 
16.47, 0.035929, , 
16.50, 0.035929, , 
16.53, 0.036005, , 
16.56, 0.036160, , 
16.59, 0.036290, , 
16.62, 0.036363, , 
16.65, 0.036433, , 
16.68, 0.036582, , 
16.71, 0.036721, , 
16.74, 0.036826, , 
16.77, 0.036969, , 
16.80, 0.037080, , 
16.83, 0.037213, , 
16.86, 0.037334, , 
16.89, 0.037378, , 
16.92, 0.037473, , 
16.95, 0.037670, , 
16.98, 0.037797, , 
17.01, 0.037917, , 
17.04, 0.038076, , 
17.07, 0.038212, , 
17.10, 0.038346, , 
17.13, 0.038479, , 
17.16, 0.038577, , 
17.19, 0.038732, , 
17.22, 0.038891, , 
17.25, 0.039008, , 
17.28, 0.038967, , 
17.31, 0.038999, , 
17.34, 0.039158, , 
17.37, 0.039300, , 
17.40, 0.039395, , 
17.43, 0.039453, , 
17.46, 0.039516, , 
17.49, 0.039567, , 
17.52, 0.039525, , 
17.55, 0.039522, , 
17.58, 0.039456, , 
17.61, 0.039345, , 
17.64, 0.039186, , 
17.67, 0.039104, , 
17.70, 0.039069, , 
17.73, 0.039008, , 
17.76, 0.038999, , 
17.79, 0.038980, , 
17.82, 0.038875, , 
17.85, 0.038723, , 
17.88, 0.038552, , 
17.91, 0.038463, , 
17.94, 0.038307, , 
17.97, 0.038168, , 
18.00, 0.038012, , 
18.03, 0.037841, , 
18.06, 0.037638, , 
18.09, 0.037394, , 
18.12, 0.037219, , 
18.15, 0.037134, , 
18.18, 0.036940, , 
18.21, 0.036731, , 
18.24, 0.036531, , 
18.27, 0.036204, , 
18.30, 0.035925, , 
18.33, 0.035551, , 
18.36, 0.035370, , 
18.39, 0.035129, , 
18.42, 0.034821, , 
18.45, 0.034590, , 
18.48, 0.034324, , 
18.51, 0.034174, , 
18.54, 0.033949, , 
18.57, 0.033683, , 
18.60, 0.033435, , 
18.63, 0.033232, , 
18.66, 0.033010, , 
18.69, 0.032785, , 
18.72, 0.032569, , 
18.75, 0.032325, , 
18.78, 0.032075, , 
18.81, 0.031811, , 
18.84, 0.031653, , 
18.87, 0.031370, , 
18.90, 0.031174, , 
18.93, 0.030891, , 
18.96, 0.030711, , 
19.00, 0.030530, , 
19.02, 0.030270, , 
19.05, 0.030038, , 
19.08, 0.029772, , 
19.11, 0.029585, , 
19.14, 0.029467, , 
19.17, 0.029293, , 
19.18, 0.029175, 6, 0.585
19.20, 0.029042, , 
19.23, 0.028823, , 
19.26, 0.028620, , 
19.30, 0.028519, , 
19.32, 0.028414, , 
19.35, 0.028186, , 
19.38, 0.028068, , 
19.41, 0.028002, , 
19.44, 0.027897, , 
19.47, 0.027697, , 
19.50, 0.027564, , 
19.53, 0.027444, , 
19.56, 0.027279, , 
19.59, 0.027101, , 
19.62, 0.027022, , 
19.65, 0.026908, , 
19.68, 0.026743, , 
19.71, 0.026597, , 
19.74, 0.026479, , 
19.77, 0.026371, , 
19.80, 0.026216, , 
19.83, 0.026048, , 
19.86, 0.025902, , 
19.90, 0.025823, , 
19.92, 0.025731, , 
19.95, 0.025531, , 
19.98, 0.025423, , 
20.01, 0.025366, , 
20.04, 0.025261, , 
20.07, 0.025087, , 
20.11, 0.025008, , 
20.13, 0.024969, , 
20.16, 0.024893, , 
20.19, 0.024782, , 
20.22, 0.024681, , 
20.25, 0.024570, , 
20.28, 0.024465, , 
20.31, 0.024395, , 
20.34, 0.024379, , 
20.37, 0.024395, , 
20.40, 0.024310, , 
20.43, 0.024154, , 
20.46, 0.024059, , 
20.49, 0.023964, , 
20.52, 0.023910, , 
20.55, 0.023885, , 
20.58, 0.023862, , 
20.61, 0.023856, , 
20.64, 0.023856, , 
20.67, 0.023751, , 
20.70, 0.023583, , 
20.73, 0.023536, , 
20.76, 0.023447, , 
20.79, 0.023387, , 
20.82, 0.023441, , 
20.85, 0.023422, , 
20.88, 0.023361, , 
20.91, 0.023358, , 
20.94, 0.023377, , 
20.98, 0.023336, , 
21.00, 0.023215, , 
21.03, 0.023047, , 
21.06, 0.023012, , 
21.09, 0.022974, , 
21.12, 0.022866, , 
21.15, 0.022863, , 
21.18, 0.022863, , 
21.21, 0.022857, , 
21.24, 0.022828, , 
21.27, 0.022851, , 
21.30, 0.022866, , 
21.33, 0.022873, , 
21.36, 0.022866, , 
21.39, 0.022857, , 
21.42, 0.022866, , 
21.45, 0.022841, , 
21.48, 0.022803, , 
21.51, 0.022819, , 
21.54, 0.022879, , 
21.57, 0.022844, , 
21.60, 0.022844, , 
21.63, 0.022835, , 
21.66, 0.022838, , 
21.69, 0.022828, , 
21.72, 0.022835, , 
21.75, 0.022844, , 
21.78, 0.022803, , 
21.81, 0.022787, , 
21.84, 0.022746, , 
21.87, 0.022797, , 
21.90, 0.022797, , 
21.93, 0.022790, , 
21.96, 0.022803, , 
21.99, 0.022924, , 
22.02, 0.023016, , 
22.05, 0.023066, , 
22.08, 0.023117, , 
22.11, 0.023257, , 
22.14, 0.023285, , 
22.17, 0.023257, , 
22.20, 0.023282, , 
22.23, 0.023317, , 
22.26, 0.023384, , 
22.29, 0.023485, , 
22.32, 0.023583, , 
22.35, 0.023710, , 
22.38, 0.023761, , 
22.39, 0.023755, 7, 0.587
22.41, 0.023761, , 
22.44, 0.023828, , 
22.47, 0.023881, , 
22.50, 0.023878, , 
22.53, 0.023869, , 
22.56, 0.023875, , 
22.59, 0.023862, , 
22.62, 0.023885, , 
22.65, 0.023986, , 
22.68, 0.024132, , 
22.71, 0.024199, , 
22.74, 0.024230, , 
22.77, 0.024240, , 
22.80, 0.024281, , 
22.83, 0.024316, , 
22.86, 0.024414, , 
22.89, 0.024541, , 
22.92, 0.024662, , 
22.95, 0.024744, , 
22.98, 0.024811, , 
23.01, 0.024954, , 
23.04, 0.025100, , 
23.07, 0.025223, , 
23.10, 0.025356, , 
23.13, 0.025502, , 
23.16, 0.025699, , 
23.20, 0.025820, , 
23.22, 0.026007, , 
23.25, 0.026197, , 
23.28, 0.026400, , 
23.31, 0.026616, , 
23.34, 0.026869, , 
23.37, 0.027237, , 
23.40, 0.027498, , 
23.43, 0.027710, , 
23.46, 0.028072, , 
23.49, 0.028462, , 
23.52, 0.028972, , 
23.55, 0.029350, , 
23.58, 0.029753, , 
23.61, 0.030219, , 
23.64, 0.030663, , 
23.67, 0.031060, , 
23.70, 0.031542, , 
23.73, 0.032046, , 
23.76, 0.032776, , 
23.79, 0.033356, , 
23.82, 0.033987, , 
23.85, 0.034514, , 
23.88, 0.035136, , 
23.91, 0.035865, , 
23.94, 0.036557, , 
23.97, 0.037388, , 
24.00, 0.038082, , 
24.03, 0.038771, , 
24.06, 0.039529, , 
24.09, 0.040287, , 
24.12, 0.041054, , 
24.15, 0.041749, , 
24.18, 0.042523, , 
24.21, 0.043405, , 
24.24, 0.044144, , 
24.27, 0.044864, , 
24.30, 0.045644, , 
24.34, 0.046482, , 
24.36, 0.047033, , 
24.39, 0.047804, , 
24.42, 0.048496, , 
24.45, 0.049171, , 
24.48, 0.049831, , 
24.51, 0.050615, , 
24.54, 0.051309, , 
24.57, 0.051921, , 
24.60, 0.052575, , 
24.63, 0.053076, , 
24.67, 0.053729, , 
24.69, 0.054221, , 
24.72, 0.054776, , 
24.75, 0.055391, , 
24.78, 0.055823, , 
24.81, 0.056200, , 
24.84, 0.056460, , 
24.87, 0.056870, , 
24.90, 0.057276, , 
24.93, 0.057621, , 
24.96, 0.057869, , 
24.99, 0.058148, , 
25.02, 0.058411, , 
25.05, 0.058582, , 
25.08, 0.058751, , 
25.11, 0.058903, , 
25.14, 0.058982, , 
25.17, 0.059011, , 
25.20, 0.059115, , 
25.23, 0.059290, , 
25.26, 0.059385, , 
25.29, 0.059417, , 
25.32, 0.059344, , 
25.35, 0.059214, , 
25.39, 0.059144, , 
25.41, 0.059087, , 
25.44, 0.058995, , 
25.47, 0.058960, , 
25.50, 0.058896, , 
25.53, 0.058684, , 
25.56, 0.058573, , 
25.59, 0.058449, 8, 0.586
25.60, 0.058424, , 
25.62, 0.058291, , 
25.65, 0.058081, , 
25.68, 0.057875, , 
25.71, 0.057761, , 
25.74, 0.057606, , 
25.77, 0.057295, , 
25.80, 0.057006, , 
25.83, 0.056724, , 
25.86, 0.056505, , 
25.89, 0.056235, , 
25.92, 0.055962, , 
25.95, 0.055772, , 
25.98, 0.055525, , 
26.01, 0.055328, , 
26.04, 0.055125, , 
26.07, 0.054913, , 
26.10, 0.054706, , 
26.13, 0.054421, , 
26.16, 0.054193, , 
26.19, 0.053942, , 
26.22, 0.053634, , 
26.25, 0.053301, , 
26.28, 0.053092, , 
26.31, 0.052838, , 
26.34, 0.052572, , 
26.37, 0.052397, , 
26.40, 0.052169, , 
26.43, 0.051874, , 
26.46, 0.051503, , 
26.49, 0.051217, , 
26.52, 0.051024, , 
26.56, 0.050760, , 
26.58, 0.050519, , 
26.61, 0.050174, , 
26.64, 0.049914, , 
26.67, 0.049631, , 
26.70, 0.049365, , 
26.73, 0.049089, , 
26.77, 0.048845, , 
26.79, 0.048575, , 
26.82, 0.048283, , 
26.85, 0.048001, , 
26.88, 0.047798, , 
26.91, 0.047439, , 
26.94, 0.047116, , 
26.97, 0.046865, , 
27.00, 0.046615, , 
27.03, 0.046386, , 
27.06, 0.046037, , 
27.09, 0.045739, , 
27.12, 0.045486, , 
27.15, 0.045156, , 
27.18, 0.044908, , 
27.21, 0.044683, , 
27.24, 0.044451, , 
27.27, 0.044207, , 
27.30, 0.043938, , 
27.33, 0.043731, , 
27.36, 0.043500, , 
27.40, 0.043230, , 
27.42, 0.043021, , 
27.45, 0.042802, , 
27.48, 0.042605, , 
27.51, 0.042368, , 
27.54, 0.042139, , 
27.57, 0.042015, , 
27.60, 0.041831, , 
27.64, 0.041644, , 
27.66, 0.041492, , 
27.69, 0.041381, , 
27.72, 0.041257, , 
27.75, 0.041124, , 
27.78, 0.041032, , 
27.81, 0.040902, , 
27.84, 0.040737, , 
27.87, 0.040629, , 
27.90, 0.040509, , 
27.93, 0.040502, , 
27.96, 0.040471, , 
27.99, 0.040420, , 
28.02, 0.040274, , 
28.05, 0.040188, , 
28.08, 0.040055, , 
28.11, 0.039985, , 
28.14, 0.039995, , 
28.17, 0.040030, , 
28.20, 0.039998, , 
28.23, 0.039995, , 
28.26, 0.040017, , 
28.29, 0.040023, , 
28.32, 0.039985, , 
28.35, 0.040011, , 
28.38, 0.040217, , 
28.41, 0.040344, , 
28.44, 0.040401, , 
28.47, 0.040480, , 
28.50, 0.040537, , 
28.53, 0.040540, , 
28.56, 0.040626, , 
28.59, 0.040775, , 
28.62, 0.040943, , 
28.65, 0.041083, , 
28.68, 0.041245, , 
28.71, 0.041330, , 
28.74, 0.041524, , 
28.77, 0.041717, , 
28.79, 0.041778, 9, 0.584
28.80, 0.041870, , 
28.83, 0.042114, , 
28.86, 0.042380, , 
28.89, 0.042628, , 
28.92, 0.042929, , 
28.95, 0.043199, , 
28.98, 0.043494, , 
29.01, 0.043773, , 
