Gradient Profiler Text Data File: 2025_1_28_C1_WH.csv
Date: 2025-01-28
Time: 17:17:45

User: Jared
Experiment name: 
UV Unit: EM-1
Rotor Manufacturer: Beckman
Rotor Model: SW28.1
Speed: 28 rpm
Gradient: sucrose 10.0% to 50.0% w/v
Time: 4
w2t:  x 10^0
Sample Volume: 18 ml
Number of Tubes: 6
Volume per mm: 0.183 ml/mm

Absorbance Units Full Scale (AUFS): 2.00
Event Mark-triggered gradient; (with distance; auto start and stop)
Delay: No Delay
UV Wavelength: 254 nm
Samples / sec: 10 Hz
EM1 Speed: 0.30 mm/sec
Distance: 3.20 mm
Number: 30
Dead Volume: 0.000000 ml; Distance due to Dead Volume: 0.00 mm
Total Distance: 96.00 mm

Data Columns:
Distance(mm), Absorbance, Fraction Number, Fraction Volume(ml)
0.00, 0.071981, 0, 0.000
0.03, 0.072044, , 
0.06, 0.072101, , 
0.09, 0.072025, , 
0.12, 0.072050, , 
0.15, 0.072050, , 
0.18, 0.072044, , 
0.21, 0.071971, , 
0.25, 0.072025, , 
0.27, 0.072108, , 
0.30, 0.071984, , 
0.33, 0.071870, , 
0.36, 0.072012, , 
0.39, 0.072079, , 
0.42, 0.072009, , 
0.45, 0.071857, , 
0.48, 0.071844, , 
0.51, 0.071946, , 
0.54, 0.072057, , 
0.57, 0.072342, , 
0.60, 0.072831, , 
0.63, 0.073211, , 
0.66, 0.073376, , 
0.69, 0.073570, , 
0.72, 0.073789, , 
0.75, 0.074265, , 
0.78, 0.074763, , 
0.82, 0.076802, , 
0.84, 0.082569, , 
0.87, 0.097147, , 
0.90, 0.134684, , 
0.93, 0.190100, , 
0.96, 0.264726, , 
0.99, 0.367754, , 
1.02, 0.447652, , 
1.05, 0.547251, , 
1.08, 0.666801, , 
1.11, 0.770729, , 
1.14, 0.875099, , 
1.17, 0.997650, , 
1.20, 1.103059, , 
1.23, 1.208545, , 
1.26, 1.331908, , 
1.29, 1.437737, , 
1.32, 1.525624, , 
1.35, 1.646827, , 
1.38, 1.745884, , 
1.41, 1.834609, , 
1.44, 1.915925, , 
1.47, 1.962895, , 
1.50, 1.995997, , 
1.53, 2.011749, , 
1.56, 2.020763, , 
1.59, 2.025705, , 
1.62, 2.028319, , 
1.65, 2.030026, , 
1.68, 2.030942, , 
1.71, 2.031532, , 
1.74, 2.031735, , 
1.77, 2.031995, , 
1.80, 2.032382, , 
1.83, 2.032493, , 
1.86, 2.032557, , 
1.89, 2.032646, , 
1.92, 2.032880, , 
1.95, 2.032966, , 
1.98, 2.032922, , 
2.01, 2.033033, , 
2.04, 2.033159, , 
2.07, 2.033185, , 
2.10, 2.033223, , 
2.13, 2.033359, , 
2.16, 2.033413, , 
2.19, 2.033388, , 
2.22, 2.033340, , 
2.25, 2.033448, , 
2.28, 2.033581, , 
2.31, 2.033537, , 
2.34, 2.033540, , 
2.37, 2.033588, , 
2.40, 2.033508, , 
2.43, 2.033020, , 
2.46, 2.032278, , 
2.49, 2.031278, , 
2.52, 2.029905, , 
2.55, 2.027967, , 
2.58, 2.025629, , 
2.61, 2.023009, , 
2.64, 2.019466, , 
2.67, 2.015752, , 
2.70, 2.010972, , 
2.73, 2.006350, , 
2.76, 2.001072, , 
2.79, 1.994164, , 
2.82, 1.988730, , 
2.85, 1.981654, , 
2.88, 1.972731, , 
2.91, 1.964268, , 
2.94, 1.953721, , 
2.97, 1.944399, , 
3.00, 1.934744, , 
3.03, 1.924457, , 
3.06, 1.914025, , 
3.09, 1.901492, , 
3.12, 1.890251, , 
3.15, 1.878490, , 
3.18, 1.866401, 1, 0.582
3.18, 1.864343, , 
3.21, 1.851950, , 
3.24, 1.839227, , 
3.27, 1.823910, , 
3.30, 1.812862, , 
3.33, 1.797228, , 
3.36, 1.783335, , 
3.39, 1.769270, , 
3.42, 1.755085, , 
3.45, 1.738350, , 
3.48, 1.723709, , 
3.51, 1.708804, , 
3.54, 1.691475, , 
3.57, 1.676520, , 
3.60, 1.661399, , 
3.63, 1.646120, , 
3.66, 1.630799, , 
3.69, 1.612980, , 
3.72, 1.597389, , 
3.75, 1.581758, , 
3.78, 1.563491, , 
3.81, 1.547806, , 
3.84, 1.532000, , 
3.87, 1.515868, , 
3.90, 1.500002, , 
3.93, 1.484063, , 
3.96, 1.465202, , 
3.99, 1.449000, , 
4.02, 1.430210, , 
4.05, 1.414166, , 
4.08, 1.398052, , 
4.12, 1.379198, , 
4.14, 1.365819, , 
4.17, 1.347276, , 
4.20, 1.331451, , 
4.23, 1.315712, , 
4.26, 1.297699, , 
4.29, 1.282477, , 
4.32, 1.267296, , 
4.35, 1.252178, , 
4.38, 1.237480, , 
4.41, 1.220449, , 
4.44, 1.205925, , 
4.47, 1.189161, , 
4.50, 1.174999, , 
4.53, 1.161058, , 
4.56, 1.147235, , 
4.59, 1.131353, , 
4.62, 1.120207, , 
4.65, 1.104712, , 
4.68, 1.091444, , 
4.71, 1.078258, , 
4.74, 1.063058, , 
4.77, 1.050126, , 
4.80, 1.037185, , 
4.83, 1.024411, , 
4.86, 1.011844, , 
4.89, 0.997240, , 
4.92, 0.984775, , 
4.95, 0.970495, , 
4.98, 0.958435, , 
5.01, 0.946413, , 
5.04, 0.934490, , 
5.07, 0.922690, , 
5.10, 0.909134, , 
5.13, 0.897585, , 
5.16, 0.886004, , 
5.19, 0.872802, , 
5.22, 0.861811, , 
5.25, 0.850913, , 
5.28, 0.839947, , 
5.31, 0.829312, , 
5.34, 0.818791, , 
5.37, 0.806547, , 
5.40, 0.796181, , 
5.43, 0.784366, , 
5.46, 0.774453, , 
5.49, 0.764569, , 
5.52, 0.754733, , 
5.55, 0.745087, , 
5.58, 0.734141, , 
5.61, 0.724806, , 
5.64, 0.715566, , 
5.67, 0.704798, , 
5.70, 0.695811, , 
5.73, 0.686851, , 
5.76, 0.677814, , 
5.79, 0.668913, , 
5.82, 0.658941, , 
5.85, 0.650259, , 
5.88, 0.641575, , 
5.91, 0.631688, , 
5.94, 0.623456, , 
5.97, 0.615190, , 
6.00, 0.605468, , 
6.03, 0.597355, , 
6.06, 0.590735, , 
6.09, 0.581403, , 
6.12, 0.573435, , 
6.15, 0.565718, , 
6.18, 0.558241, , 
6.21, 0.549541, , 
6.24, 0.542195, , 
6.27, 0.533970, , 
6.30, 0.527201, , 
6.33, 0.520416, , 
6.36, 0.513663, , 
6.39, 0.507132, 2, 0.588
6.40, 0.506041, , 
6.42, 0.500696, , 
6.45, 0.493258, , 
6.48, 0.487041, , 
6.51, 0.480066, , 
6.54, 0.474150, , 
6.57, 0.468187, , 
6.60, 0.462373, , 
6.63, 0.456673, , 
6.66, 0.450072, , 
6.69, 0.444321, , 
6.72, 0.438561, , 
6.75, 0.431998, , 
6.78, 0.426375, , 
6.81, 0.420722, , 
6.84, 0.414207, , 
6.87, 0.408872, , 
6.90, 0.404412, , 
6.93, 0.398119, , 
6.96, 0.392758, , 
6.99, 0.386665, , 
7.02, 0.381552, , 
7.05, 0.376347, , 
7.08, 0.370346, , 
7.11, 0.366292, , 
7.14, 0.360630, , 
7.17, 0.355790, , 
7.20, 0.351108, , 
7.23, 0.345887, , 
7.26, 0.341468, , 
7.29, 0.337009, , 
7.32, 0.332717, , 
7.35, 0.327927, , 
7.38, 0.323791, , 
7.41, 0.319687, , 
7.44, 0.315725, , 
7.47, 0.311966, , 
7.50, 0.307522, , 
7.53, 0.303170, , 
7.56, 0.300119, , 
7.59, 0.296541, , 
7.62, 0.292281, , 
7.65, 0.288576, , 
7.68, 0.285046, , 
7.71, 0.281037, , 
7.74, 0.277500, , 
7.78, 0.273364, , 
7.80, 0.270382, , 
7.83, 0.266998, , 
7.86, 0.262985, , 
7.89, 0.259563, , 
7.92, 0.255829, , 
7.95, 0.252581, , 
7.98, 0.249263, , 
8.01, 0.245904, , 
8.04, 0.242231, , 
8.07, 0.239662, , 
8.10, 0.235960, , 
8.13, 0.232963, , 
8.16, 0.230108, , 
8.19, 0.226666, , 
8.22, 0.223726, , 
8.25, 0.220935, , 
8.28, 0.217848, , 
8.31, 0.215200, , 
8.34, 0.212504, , 
8.37, 0.209773, , 
8.40, 0.207289, , 
8.43, 0.204666, , 
8.46, 0.201602, , 
8.49, 0.199210, , 
8.52, 0.196872, , 
8.55, 0.194100, , 
8.58, 0.191693, , 
8.61, 0.188962, , 
8.64, 0.187125, , 
8.67, 0.184975, , 
8.70, 0.182361, , 
8.73, 0.180134, , 
8.76, 0.178038, , 
8.79, 0.175567, , 
8.82, 0.173467, , 
8.85, 0.171326, , 
8.88, 0.169327, , 
8.91, 0.167399, , 
8.94, 0.164991, , 
8.97, 0.162984, , 
9.00, 0.161131, , 
9.03, 0.158965, , 
9.06, 0.156916, , 
9.09, 0.154898, , 
9.12, 0.153547, , 
9.15, 0.151945, , 
9.18, 0.149956, , 
9.21, 0.148294, , 
9.24, 0.146562, , 
9.27, 0.145037, , 
9.30, 0.143416, , 
9.33, 0.141877, , 
9.36, 0.140456, , 
9.39, 0.138836, , 
9.42, 0.137453, , 
9.45, 0.135911, , 
9.49, 0.134826, , 
9.51, 0.133821, , 
9.54, 0.132301, , 
9.57, 0.131017, , 
9.59, 0.130481, 3, 0.585
9.60, 0.129729, , 
9.63, 0.128593, , 
9.66, 0.127337, , 
9.69, 0.126110, , 
9.72, 0.125101, , 
9.75, 0.123705, , 
9.78, 0.122554, , 
9.81, 0.121333, , 
9.84, 0.120216, , 
9.87, 0.119284, , 
9.90, 0.118002, , 
9.93, 0.116959, , 
9.96, 0.115909, , 
9.99, 0.114945, , 
10.02, 0.113968, , 
10.05, 0.113003, , 
10.08, 0.112353, , 
10.11, 0.111249, , 
10.14, 0.110295, , 
10.17, 0.109451, , 
10.20, 0.108632, , 
10.23, 0.107862, , 
10.26, 0.107002, , 
10.29, 0.106200, , 
10.32, 0.105651, , 
10.35, 0.105080, , 
10.38, 0.104265, , 
10.41, 0.103713, , 
10.44, 0.103063, , 
10.47, 0.102463, , 
10.50, 0.101911, , 
10.53, 0.101302, , 
10.56, 0.100842, , 
10.59, 0.100141, , 
10.62, 0.099513, , 
10.65, 0.099050, , 
10.68, 0.098682, , 
10.71, 0.097965, , 
10.74, 0.097432, , 
10.77, 0.097080, , 
10.80, 0.096706, , 
10.83, 0.096110, , 
10.86, 0.095631, , 
10.89, 0.095174, , 
10.92, 0.094793, , 
10.95, 0.094254, , 
10.98, 0.093731, , 
11.01, 0.093347, , 
11.04, 0.092915, , 
11.07, 0.092383, , 
11.10, 0.091999, , 
11.13, 0.091732, , 
11.16, 0.091406, , 
11.19, 0.090971, , 
11.22, 0.090587, , 
11.25, 0.090343, , 
11.28, 0.090054, , 
11.31, 0.089588, , 
11.34, 0.089261, , 
11.37, 0.089055, , 
11.40, 0.088741, , 
11.43, 0.088345, , 
11.46, 0.088075, , 
11.49, 0.087891, , 
11.52, 0.087542, , 
11.55, 0.087168, , 
11.58, 0.086870, , 
11.61, 0.086648, , 
11.64, 0.086324, , 
11.67, 0.085931, , 
11.70, 0.085658, , 
11.73, 0.085427, , 
11.76, 0.085132, , 
11.79, 0.084703, , 
11.82, 0.084440, , 
11.85, 0.084253, , 
11.88, 0.083948, , 
11.91, 0.083666, , 
11.94, 0.083403, , 
11.97, 0.083105, , 
12.00, 0.082848, , 
12.03, 0.082470, , 
12.06, 0.082305, , 
12.09, 0.082153, , 
12.12, 0.081849, , 
12.15, 0.081535, , 
12.19, 0.081360, , 
12.21, 0.081208, , 
12.24, 0.080910, , 
12.27, 0.080621, , 
12.30, 0.080399, , 
12.33, 0.080275, , 
12.36, 0.079933, , 
12.39, 0.079638, , 
12.42, 0.079501, , 
12.45, 0.079336, , 
12.48, 0.079016, , 
12.51, 0.078813, , 
12.54, 0.078648, , 
12.57, 0.078420, , 
12.60, 0.077976, , 
12.63, 0.077671, , 
12.66, 0.077494, , 
12.69, 0.077205, , 
12.72, 0.076815, , 
12.75, 0.076580, , 
12.78, 0.076348, 4, 0.585
12.79, 0.076320, , 
12.81, 0.076063, , 
12.84, 0.075682, , 
12.87, 0.075457, , 
12.90, 0.075299, , 
12.93, 0.074946, , 
12.96, 0.074594, , 
12.99, 0.074274, , 
13.02, 0.074093, , 
13.05, 0.073928, , 
13.08, 0.073554, , 
13.11, 0.073246, , 
13.14, 0.073081, , 
13.17, 0.072694, , 
13.20, 0.072368, , 
13.23, 0.072168, , 
13.26, 0.071993, , 
13.29, 0.071606, , 
13.32, 0.071213, , 
13.35, 0.070975, , 
13.38, 0.070591, , 
13.41, 0.070233, , 
13.44, 0.069751, , 
13.47, 0.069484, , 
13.50, 0.069275, , 
13.53, 0.068834, , 
13.56, 0.068396, , 
13.59, 0.068063, , 
13.62, 0.067575, , 
13.65, 0.067251, , 
13.68, 0.066842, , 
13.71, 0.066535, , 
13.74, 0.066278, , 
13.77, 0.065783, , 
13.80, 0.065259, , 
13.83, 0.064860, , 
13.87, 0.064485, , 
13.89, 0.064168, , 
13.92, 0.063772, , 
13.95, 0.063477, , 
13.98, 0.063109, , 
14.01, 0.062614, , 
14.04, 0.062252, , 
14.07, 0.061919, , 
14.10, 0.061640, , 
14.13, 0.061222, , 
14.16, 0.060819, , 
14.19, 0.060568, , 
14.22, 0.060283, , 
14.25, 0.059858, , 
14.28, 0.059423, , 
14.31, 0.059125, , 
14.34, 0.058846, , 
14.37, 0.058494, , 
14.40, 0.058246, , 
14.43, 0.058100, , 
14.46, 0.057780, , 
14.49, 0.057412, , 
14.52, 0.057114, , 
14.55, 0.056974, , 
14.58, 0.056774, , 
14.61, 0.056470, , 
14.64, 0.056197, , 
14.67, 0.055985, , 
14.70, 0.055747, , 
14.73, 0.055458, , 
14.76, 0.055239, , 
14.79, 0.055014, , 
14.82, 0.054760, , 
14.85, 0.054475, , 
14.88, 0.054338, , 
14.91, 0.054307, , 
14.94, 0.054059, , 
14.97, 0.053821, , 
15.00, 0.053704, , 
15.03, 0.053622, , 
15.06, 0.053311, , 
15.09, 0.053073, , 
15.12, 0.052902, , 
15.15, 0.052863, , 
15.18, 0.052638, , 
15.22, 0.052540, , 
15.24, 0.052508, , 
15.27, 0.052435, , 
15.30, 0.052220, , 
15.33, 0.052023, , 
15.36, 0.051928, , 
15.39, 0.051899, , 
15.42, 0.051744, , 
15.45, 0.051401, , 
15.48, 0.051306, , 
15.51, 0.051262, , 
15.54, 0.051014, , 
15.57, 0.050859, , 
15.60, 0.050875, , 
15.63, 0.050745, , 
15.66, 0.050583, , 
15.69, 0.050564, , 
15.72, 0.050586, , 
15.75, 0.050615, , 
15.78, 0.050367, , 
15.81, 0.050224, , 
15.84, 0.050193, , 
15.87, 0.050145, , 
15.90, 0.050066, , 
15.93, 0.049993, , 
15.96, 0.050059, , 
15.99, 0.050098, 5, 0.587
15.99, 0.050098, , 
16.02, 0.050072, , 
16.05, 0.050136, , 
16.08, 0.050228, , 
16.11, 0.050161, , 
16.14, 0.049844, , 
16.17, 0.049714, , 
16.20, 0.049672, , 
16.23, 0.049707, , 
16.26, 0.049609, , 
16.29, 0.049542, , 
16.32, 0.049647, , 
16.35, 0.049619, , 
16.38, 0.049568, , 
16.41, 0.049552, , 
16.44, 0.049593, , 
16.47, 0.049619, , 
16.50, 0.049555, , 
16.53, 0.049549, , 
16.56, 0.049644, , 
16.59, 0.049660, , 
16.62, 0.049533, , 
16.65, 0.049565, , 
16.68, 0.049631, , 
16.71, 0.049568, , 
16.75, 0.049536, , 
16.77, 0.049574, , 
16.80, 0.049711, , 
16.83, 0.049853, , 
16.86, 0.049967, , 
16.89, 0.050079, , 
16.92, 0.050129, , 
16.95, 0.050085, , 
16.98, 0.050094, , 
17.01, 0.050151, , 
17.04, 0.050405, , 
17.07, 0.050475, , 
17.10, 0.050465, , 
17.13, 0.050564, , 
17.16, 0.050751, , 
17.19, 0.050767, , 
17.22, 0.050957, , 
17.25, 0.051128, , 
17.28, 0.051300, , 
17.31, 0.051411, , 
17.34, 0.051490, , 
17.37, 0.051731, , 
17.40, 0.051953, , 
17.43, 0.052083, , 
17.46, 0.052308, , 
17.49, 0.052651, , 
17.52, 0.052962, , 
17.55, 0.053222, , 
17.58, 0.053533, , 
17.61, 0.054047, , 
17.64, 0.054614, , 
17.67, 0.054928, , 
17.70, 0.055214, , 
17.73, 0.055728, , 
17.76, 0.056353, , 
17.79, 0.056755, , 
17.82, 0.057494, , 
17.85, 0.058199, , 
17.88, 0.058881, , 
17.91, 0.059642, , 
17.94, 0.060397, , 
17.98, 0.061336, , 
18.00, 0.062087, , 
18.03, 0.062903, , 
18.06, 0.063981, , 
18.09, 0.064898, , 
18.12, 0.065846, , 
18.15, 0.066626, , 
18.18, 0.067324, , 
18.21, 0.068438, , 
18.24, 0.069437, , 
18.27, 0.070490, , 
18.30, 0.071346, , 
18.33, 0.072368, , 
18.36, 0.073544, , 
18.40, 0.074471, , 
18.42, 0.075321, , 
18.45, 0.076545, , 
18.48, 0.077446, , 
18.51, 0.078451, , 
18.54, 0.079311, , 
18.57, 0.080361, , 
18.60, 0.081211, , 
18.63, 0.082001, , 
18.66, 0.082930, , 
18.69, 0.083891, , 
18.72, 0.084954, , 
18.75, 0.085709, , 
18.78, 0.086505, , 
18.81, 0.087330, , 
18.84, 0.087980, , 
18.87, 0.088652, , 
18.90, 0.089287, , 
18.93, 0.090004, , 
18.96, 0.090613, , 
18.99, 0.091054, , 
19.02, 0.091374, , 
19.05, 0.091834, , 
19.08, 0.092164, , 
19.11, 0.092449, , 
19.14, 0.092700, , 
19.17, 0.092852, , 
19.18, 0.092868, 6, 0.584
19.20, 0.092915, , 
19.23, 0.092992, , 
19.26, 0.093077, , 
19.29, 0.093157, , 
19.32, 0.093093, , 
19.35, 0.092881, , 
19.38, 0.092868, , 
19.41, 0.092747, , 
19.44, 0.092544, , 
19.47, 0.092297, , 
19.50, 0.092027, , 
19.53, 0.091764, , 
19.56, 0.091377, , 
19.59, 0.091088, , 
19.62, 0.090851, , 
19.65, 0.090368, , 
19.68, 0.089924, , 
19.71, 0.089525, , 
19.74, 0.089163, , 
19.77, 0.088716, , 
19.80, 0.088186, , 
19.83, 0.087764, , 
19.86, 0.087314, , 
19.89, 0.086968, , 
19.92, 0.086454, , 
19.95, 0.085836, , 
19.98, 0.085465, , 
20.01, 0.084995, , 
20.04, 0.084523, , 
20.07, 0.084094, , 
20.10, 0.083539, , 
20.13, 0.082984, , 
20.16, 0.082331, , 
20.19, 0.081753, , 
20.22, 0.081363, , 
20.25, 0.080948, , 
20.28, 0.080431, , 
20.31, 0.079984, , 
20.34, 0.079606, , 
20.37, 0.079121, , 
20.40, 0.078528, , 
20.44, 0.078052, , 
20.46, 0.077712, , 
20.49, 0.077272, , 
20.52, 0.076751, , 
20.55, 0.076237, , 
20.58, 0.075961, , 
20.61, 0.075473, , 
20.64, 0.074861, , 
20.67, 0.074480, , 
20.70, 0.074119, , 
20.73, 0.073630, , 
20.76, 0.073075, , 
20.79, 0.072612, , 
20.82, 0.072257, , 
20.85, 0.071664, , 
20.89, 0.071140, , 
20.91, 0.070766, , 
20.94, 0.070468, , 
20.97, 0.069871, , 
21.00, 0.069377, , 
21.03, 0.068990, , 
21.06, 0.068625, , 
21.09, 0.068273, , 
21.12, 0.067572, , 
21.15, 0.067169, , 
21.18, 0.066994, , 
21.21, 0.066503, , 
21.24, 0.066163, , 
21.27, 0.065792, , 
21.30, 0.065443, , 
21.33, 0.065037, , 
21.36, 0.064533, , 
21.39, 0.064286, , 
21.42, 0.064057, , 
21.45, 0.063673, , 
21.48, 0.063315, , 
21.51, 0.063096, , 
21.54, 0.062817, , 
21.57, 0.062535, , 
21.60, 0.062129, , 
21.63, 0.061850, , 
21.66, 0.061672, , 
21.69, 0.061352, , 
21.72, 0.061019, , 
21.75, 0.060796, , 
21.78, 0.060724, , 
21.81, 0.060422, , 
21.84, 0.060115, , 
21.87, 0.060048, , 
21.90, 0.059794, , 
21.93, 0.059550, , 
21.96, 0.059341, , 
21.99, 0.059268, , 
22.02, 0.059112, , 
22.05, 0.058874, , 
22.08, 0.058801, , 
22.11, 0.058751, , 
22.14, 0.058617, , 
22.17, 0.058443, , 
22.20, 0.058360, , 
22.23, 0.058379, , 
22.26, 0.058326, , 
22.29, 0.058360, , 
22.32, 0.058487, , 
22.35, 0.058684, , 
22.38, 0.058798, 7, 0.586
22.39, 0.058827, , 
22.41, 0.059001, , 
22.44, 0.059302, , 
22.47, 0.059588, , 
22.50, 0.060019, , 
22.53, 0.060416, , 
22.56, 0.060882, , 
22.59, 0.061666, , 
22.62, 0.062395, , 
22.65, 0.063045, , 
22.68, 0.063940, , 
22.71, 0.065323, , 
22.74, 0.066677, , 
22.77, 0.068323, , 
22.80, 0.069792, , 
22.83, 0.071838, , 
22.86, 0.074014, , 
22.89, 0.076314, , 
22.92, 0.079438, , 
22.95, 0.082226, , 
22.98, 0.085715, , 
23.01, 0.089848, , 
23.04, 0.093819, , 
23.07, 0.098263, , 
23.10, 0.102999, , 
23.13, 0.107567, , 
23.16, 0.114431, , 
23.19, 0.120527, , 
23.22, 0.126998, , 
23.25, 0.134991, , 
23.28, 0.141773, , 
23.31, 0.150220, , 
23.34, 0.159739, , 
23.37, 0.166850, , 
23.40, 0.175665, , 
23.43, 0.186481, , 
23.46, 0.195210, , 
23.49, 0.207533, , 
23.52, 0.217820, , 
23.55, 0.228379, , 
23.58, 0.239024, , 
23.61, 0.248746, , 
23.64, 0.260501, , 
23.67, 0.273326, , 
23.70, 0.284132, , 
23.73, 0.294882, , 
23.76, 0.307491, , 
23.79, 0.317235, , 
23.82, 0.328476, , 
23.85, 0.338655, , 
23.88, 0.350454, , 
23.91, 0.360316, , 
23.94, 0.369784, , 
23.97, 0.380378, , 
24.00, 0.389184, , 
24.03, 0.398950, , 
24.06, 0.405570, , 
24.09, 0.413160, , 
24.12, 0.421192, , 
24.15, 0.428408, , 
24.18, 0.434666, , 
24.21, 0.441571, , 
24.24, 0.447072, , 
24.27, 0.451703, , 
24.30, 0.456629, , 
24.33, 0.460701, , 
24.36, 0.465123, , 
24.39, 0.468485, , 
24.42, 0.471150, , 
24.45, 0.473966, , 
24.48, 0.476539, , 
24.51, 0.478306, , 
24.54, 0.479714, , 
24.58, 0.480535, , 
24.60, 0.481132, , 
24.63, 0.481525, , 
24.66, 0.481449, , 
24.69, 0.481027, , 
24.72, 0.480580, , 
24.75, 0.479692, , 
24.78, 0.478607, , 
24.81, 0.477186, , 
24.84, 0.475299, , 
24.87, 0.473595, , 
24.90, 0.471191, , 
24.93, 0.468685, , 
24.96, 0.466211, , 
24.99, 0.463604, , 
25.02, 0.460698, , 
25.05, 0.457951, , 
25.08, 0.454028, , 
25.11, 0.450754, , 
25.14, 0.446577, , 
25.17, 0.442834, , 
25.20, 0.439433, , 
25.23, 0.435300, , 
25.26, 0.431237, , 
25.29, 0.426552, , 
25.32, 0.422543, , 
25.35, 0.418746, , 
25.38, 0.414058, , 
25.41, 0.409725, , 
25.44, 0.404568, , 
25.47, 0.400051, , 
25.50, 0.394700, , 
25.53, 0.390579, , 
25.56, 0.385631, , 
25.58, 0.381780, 8, 0.586
25.60, 0.380217, , 
25.62, 0.376293, , 
25.65, 0.370932, , 
25.68, 0.366764, , 
25.71, 0.361740, , 
25.74, 0.356307, , 
25.77, 0.351844, , 
25.80, 0.347311, , 
25.83, 0.343305, , 
25.86, 0.338287, , 
25.89, 0.333786, , 
25.92, 0.328781, , 
25.95, 0.324422, , 
25.98, 0.319341, , 
26.01, 0.315525, , 
26.04, 0.311240, , 
26.08, 0.306469, , 
26.10, 0.303043, , 
26.13, 0.298593, , 
26.16, 0.295009, , 
26.19, 0.290816, , 
26.22, 0.286968, , 
26.25, 0.282753, , 
26.28, 0.279308, , 
26.31, 0.275149, , 
26.34, 0.272587, , 
26.37, 0.268904, , 
26.40, 0.265056, , 
26.43, 0.261685, , 
26.46, 0.257923, , 
26.49, 0.254960, , 
26.52, 0.252178, , 
26.55, 0.248718, , 
26.58, 0.245676, , 
26.61, 0.242345, , 
26.64, 0.239491, , 
26.67, 0.236661, , 
26.70, 0.233531, , 
26.73, 0.230609, , 
26.76, 0.227938, , 
26.79, 0.225176, , 
26.82, 0.222403, , 
26.85, 0.219634, , 
26.88, 0.216979, , 
26.91, 0.213998, , 
26.94, 0.211578, , 
26.97, 0.209589, , 
27.00, 0.206867, , 
27.03, 0.204168, , 
27.06, 0.201358, , 
27.09, 0.199086, , 
27.12, 0.196831, , 
27.15, 0.194265, , 
27.18, 0.191851, , 
27.21, 0.190015, , 
27.24, 0.187407, , 
27.27, 0.185228, , 
27.30, 0.183274, , 
27.33, 0.180629, , 
27.36, 0.178485, , 
27.39, 0.176401, , 
27.42, 0.174266, , 
27.45, 0.171982, , 
27.48, 0.170209, , 
27.51, 0.167726, , 
27.54, 0.165807, , 
27.57, 0.164008, , 
27.60, 0.162118, , 
27.63, 0.160376, , 
27.66, 0.158400, , 
27.69, 0.156405, , 
27.72, 0.154654, , 
27.75, 0.152833, , 
27.78, 0.150762, , 
27.81, 0.149278, , 
27.84, 0.147438, , 
27.87, 0.145639, , 
27.90, 0.143933, , 
27.93, 0.142071, , 
27.96, 0.140659, , 
27.99, 0.138550, , 
28.02, 0.137015, , 
28.05, 0.135778, , 
28.08, 0.133970, , 
28.11, 0.132517, , 
28.14, 0.130700, , 
28.17, 0.129380, , 
28.20, 0.127902, , 
28.23, 0.126199, , 
28.26, 0.125149, , 
28.29, 0.123385, , 
28.32, 0.121977, , 
28.35, 0.120534, , 
28.38, 0.119052, , 
28.41, 0.117730, , 
28.44, 0.116369, , 
28.47, 0.115252, , 
28.50, 0.114050, , 
28.53, 0.112667, , 
28.56, 0.111449, , 
28.59, 0.110288, , 
28.62, 0.109302, , 
28.65, 0.108004, , 
28.68, 0.106777, , 
28.71, 0.105429, , 
28.74, 0.104455, , 
28.77, 0.103580, , 
28.78, 0.103193, 9, 0.585
28.80, 0.102406, , 
28.83, 0.101312, , 
28.86, 0.100249, , 
28.89, 0.099332, , 
28.92, 0.098425, , 
28.95, 0.097175, , 
28.98, 0.096338, , 
29.01, 0.095463, , 
29.04, 0.094448, , 
