Gradient Profiler Text Data File: 2025_1_28_C5_SH.csv
Date: 2025-01-28
Time: 18:20:59

User: Jared
Experiment name: 
UV Unit: EM-1
Rotor Manufacturer: Beckman
Rotor Model: SW28.1
Speed: 28 rpm
Gradient: sucrose 10.0% to 50.0% w/v
Time: 4
w2t:  x 10^0
Sample Volume: 18 ml
Number of Tubes: 6
Volume per mm: 0.183 ml/mm

Absorbance Units Full Scale (AUFS): 2.00
Event Mark-triggered gradient; (with distance; auto start and stop)
Delay: No Delay
UV Wavelength: 254 nm
Samples / sec: 10 Hz
EM1 Speed: 0.30 mm/sec
Distance: 3.20 mm
Number: 30
Dead Volume: 0.000000 ml; Distance due to Dead Volume: 0.00 mm
Total Distance: 96.00 mm

Data Columns:
Distance(mm), Absorbance, Fraction Number, Fraction Volume(ml)
0.00, 0.072390, 0, 0.000
0.03, 0.072409, , 
0.06, 0.072317, , 
0.09, 0.072282, , 
0.12, 0.072368, , 
0.15, 0.072399, , 
0.18, 0.072330, , 
0.21, 0.072345, , 
0.24, 0.072425, , 
0.27, 0.072422, , 
0.30, 0.072349, , 
0.33, 0.072393, , 
0.36, 0.072444, , 
0.39, 0.072365, , 
0.42, 0.072301, , 
0.45, 0.072323, , 
0.48, 0.072472, , 
0.51, 0.072460, , 
0.54, 0.072336, , 
0.57, 0.072387, , 
0.60, 0.072437, , 
0.63, 0.072450, , 
0.66, 0.072437, , 
0.69, 0.072393, , 
0.72, 0.072457, , 
0.75, 0.072384, , 
0.78, 0.072276, , 
0.81, 0.072292, , 
0.84, 0.072637, , 
0.87, 0.074417, , 
0.90, 0.080589, , 
0.93, 0.096151, , 
0.97, 0.133180, , 
0.99, 0.182202, , 
1.02, 0.243681, , 
1.05, 0.325139, , 
1.08, 0.399442, , 
1.11, 0.476009, , 
1.14, 0.567180, , 
1.17, 0.632982, , 
1.20, 0.712394, , 
1.23, 0.805640, , 
1.26, 0.886273, , 
1.29, 0.967472, , 
1.32, 1.062950, , 
1.35, 1.145278, , 
1.38, 1.227555, , 
1.41, 1.308230, , 
1.44, 1.395597, , 
1.47, 1.458643, , 
1.50, 1.513124, , 
1.53, 1.544307, , 
1.56, 1.565267, , 
1.59, 1.580128, , 
1.62, 1.591626, , 
1.65, 1.602785, , 
1.68, 1.611038, , 
1.71, 1.618664, , 
1.74, 1.627367, , 
1.77, 1.634539, , 
1.80, 1.640087, , 
1.83, 1.647592, , 
1.86, 1.653745, , 
1.89, 1.660498, , 
1.92, 1.665786, , 
1.95, 1.670915, , 
1.98, 1.676586, , 
2.01, 1.680358, , 
2.04, 1.685350, , 
2.07, 1.689420, , 
2.10, 1.693375, , 
2.13, 1.697851, , 
2.16, 1.701492, , 
2.19, 1.704896, , 
2.22, 1.708350, , 
2.25, 1.712080, , 
2.28, 1.714938, , 
2.31, 1.717771, , 
2.34, 1.721016, , 
2.37, 1.723125, , 
2.40, 1.725628, , 
2.43, 1.727616, , 
2.46, 1.729583, , 
2.49, 1.731591, , 
2.52, 1.733056, , 
2.55, 1.734512, , 
2.58, 1.735921, , 
2.61, 1.737062, , 
2.64, 1.737992, , 
2.67, 1.738601, , 
2.70, 1.739213, , 
2.73, 1.739276, , 
2.76, 1.739219, , 
2.79, 1.739007, , 
2.82, 1.738810, , 
2.85, 1.738385, , 
2.88, 1.737729, , 
2.91, 1.736948, , 
2.94, 1.736003, , 
2.97, 1.734890, , 
3.00, 1.733596, , 
3.03, 1.732203, , 
3.06, 1.730576, , 
3.09, 1.728219, , 
3.12, 1.726015, , 
3.15, 1.723268, , 
3.18, 1.720587, 1, 0.582
3.19, 1.720093, , 
3.21, 1.718012, , 
3.24, 1.714190, , 
3.27, 1.710710, , 
3.30, 1.706120, , 
3.33, 1.701765, , 
3.36, 1.697144, , 
3.40, 1.691314, , 
3.42, 1.686911, , 
3.45, 1.679907, , 
3.48, 1.673389, , 
3.51, 1.666738, , 
3.54, 1.659563, , 
3.57, 1.650456, , 
3.60, 1.642203, , 
3.63, 1.632037, , 
3.66, 1.622740, , 
3.69, 1.614566, , 
3.72, 1.602709, , 
3.75, 1.592105, , 
3.78, 1.579195, , 
3.81, 1.567624, , 
3.84, 1.555672, , 
3.87, 1.541468, , 
3.90, 1.530865, , 
3.93, 1.517809, , 
3.96, 1.502622, , 
3.99, 1.489439, , 
4.02, 1.473551, , 
4.05, 1.459788, , 
4.08, 1.446028, , 
4.11, 1.432176, , 
4.14, 1.418105, , 
4.17, 1.401726, , 
4.20, 1.387826, , 
4.23, 1.373819, , 
4.26, 1.357274, , 
4.29, 1.343375, , 
4.32, 1.329589, , 
4.35, 1.315804, , 
4.38, 1.301987, , 
4.41, 1.288259, , 
4.44, 1.272644, , 
4.47, 1.259372, , 
4.50, 1.243865, , 
4.53, 1.230752, , 
4.56, 1.217858, , 
4.59, 1.202871, , 
4.62, 1.192245, , 
4.65, 1.177612, , 
4.68, 1.165309, , 
4.71, 1.153100, , 
4.74, 1.138864, , 
4.77, 1.126947, , 
4.80, 1.113263, , 
4.83, 1.101486, , 
4.86, 1.089861, , 
4.89, 1.078528, , 
4.92, 1.067321, , 
4.95, 1.056131, , 
4.98, 1.043230, , 
5.01, 1.032468, , 
5.04, 1.021883, , 
5.07, 1.011302, , 
5.10, 0.999036, , 
5.13, 0.988762, , 
5.16, 0.976911, , 
5.19, 0.968500, , 
5.22, 0.958441, , 
5.25, 0.946892, , 
5.28, 0.937110, , 
5.31, 0.927372, , 
5.34, 0.916128, , 
5.37, 0.906707, , 
5.40, 0.897353, , 
5.43, 0.886476, , 
5.46, 0.877281, , 
5.49, 0.868260, , 
5.52, 0.859236, , 
5.55, 0.850212, , 
5.58, 0.841311, , 
5.61, 0.831234, , 
5.64, 0.822587, , 
5.67, 0.813979, , 
5.70, 0.804051, , 
5.73, 0.795712, , 
5.76, 0.787442, , 
5.79, 0.777838, , 
5.82, 0.769759, , 
5.85, 0.761956, , 
5.88, 0.752684, , 
5.91, 0.746061, , 
5.94, 0.737034, , 
5.97, 0.729424, , 
6.00, 0.720641, , 
6.03, 0.713175, , 
6.06, 0.706996, , 
6.09, 0.698530, , 
6.12, 0.691146, , 
6.15, 0.682670, , 
6.18, 0.675632, , 
6.21, 0.668672, , 
6.24, 0.660454, , 
6.27, 0.654671, , 
6.30, 0.646897, , 
6.33, 0.640192, , 
6.36, 0.633505, , 
6.39, 0.626955, 2, 0.587
6.39, 0.625854, , 
6.42, 0.619412, , 
6.46, 0.611949, , 
6.48, 0.606607, , 
6.51, 0.600238, , 
6.54, 0.593031, , 
6.57, 0.586919, , 
6.60, 0.579785, , 
6.63, 0.573762, , 
6.66, 0.567903, , 
6.69, 0.562118, , 
6.72, 0.556265, , 
6.75, 0.549484, , 
6.78, 0.543850, , 
6.81, 0.538192, , 
6.85, 0.531591, , 
6.87, 0.526950, , 
6.90, 0.520587, , 
6.93, 0.515141, , 
6.96, 0.508778, , 
7.00, 0.503503, , 
7.02, 0.498292, , 
7.05, 0.493011, , 
7.08, 0.487777, , 
7.11, 0.481811, , 
7.14, 0.476846, , 
7.17, 0.471768, , 
7.20, 0.466005, , 
7.24, 0.461168, , 
7.26, 0.456470, , 
7.29, 0.451680, , 
7.32, 0.446973, , 
7.35, 0.441622, , 
7.38, 0.437045, , 
7.41, 0.432395, , 
7.44, 0.427117, , 
7.47, 0.423472, , 
7.50, 0.418385, , 
7.53, 0.413969, , 
7.56, 0.408891, , 
7.59, 0.404752, , 
7.62, 0.400606, , 
7.65, 0.396365, , 
7.68, 0.392270, , 
7.71, 0.387557, , 
7.74, 0.383538, , 
7.77, 0.379493, , 
7.80, 0.374929, , 
7.84, 0.371075, , 
7.86, 0.367123, , 
7.89, 0.363244, , 
7.92, 0.359488, , 
7.95, 0.355282, , 
7.98, 0.351663, , 
8.01, 0.347333, , 
8.04, 0.344459, , 
8.07, 0.341123, , 
8.10, 0.336939, , 
8.13, 0.333307, , 
8.16, 0.329386, , 
8.19, 0.326075, , 
8.22, 0.322751, , 
8.25, 0.319382, , 
8.28, 0.316093, , 
8.31, 0.312404, , 
8.34, 0.309146, , 
8.37, 0.305984, , 
8.40, 0.302450, , 
8.43, 0.299427, , 
8.46, 0.296319, , 
8.49, 0.293255, , 
8.52, 0.290340, , 
8.55, 0.286993, , 
8.58, 0.283999, , 
8.61, 0.281078, , 
8.64, 0.277823, , 
8.67, 0.275000, , 
8.70, 0.272212, , 
8.73, 0.269126, , 
8.76, 0.266960, , 
8.79, 0.264320, , 
8.82, 0.261171, , 
8.85, 0.258497, , 
8.88, 0.255683, , 
8.91, 0.253143, , 
8.94, 0.250608, , 
8.97, 0.248217, , 
9.00, 0.245819, , 
9.03, 0.243034, , 
9.06, 0.240591, , 
9.09, 0.238209, , 
9.12, 0.235583, , 
9.15, 0.233264, , 
9.18, 0.230949, , 
9.21, 0.228830, , 
9.24, 0.226809, , 
9.27, 0.224351, , 
9.30, 0.222172, , 
9.33, 0.220091, , 
9.37, 0.217747, , 
9.39, 0.215698, , 
9.42, 0.213595, , 
9.45, 0.211609, , 
9.48, 0.209414, , 
9.51, 0.207410, , 
9.54, 0.205116, , 
9.57, 0.203562, , 
9.59, 0.202300, 3, 0.586
9.60, 0.201637, , 
9.63, 0.199407, , 
9.66, 0.197640, , 
9.69, 0.195626, , 
9.72, 0.193894, , 
9.76, 0.192083, , 
9.78, 0.190196, , 
9.81, 0.188419, , 
9.84, 0.186754, , 
9.87, 0.184981, , 
9.90, 0.182913, , 
9.93, 0.181327, , 
9.96, 0.179484, , 
9.99, 0.177844, , 
10.02, 0.176182, , 
10.05, 0.174463, , 
10.08, 0.173264, , 
10.11, 0.171383, , 
10.14, 0.169860, , 
10.17, 0.168461, , 
10.20, 0.166657, , 
10.23, 0.165429, , 
10.26, 0.163792, , 
10.29, 0.162498, , 
10.32, 0.161160, , 
10.35, 0.159523, , 
10.38, 0.158175, , 
10.41, 0.156757, , 
10.44, 0.155403, , 
10.47, 0.154273, , 
10.50, 0.152719, , 
10.53, 0.151476, , 
10.56, 0.149988, , 
10.59, 0.148700, , 
10.62, 0.147514, , 
10.65, 0.146194, , 
10.68, 0.145113, , 
10.71, 0.143787, , 
10.74, 0.142639, , 
10.77, 0.141614, , 
10.80, 0.140295, , 
10.83, 0.139127, , 
10.86, 0.138084, , 
10.89, 0.136891, , 
10.92, 0.135787, , 
10.95, 0.134722, , 
10.98, 0.133754, , 
11.01, 0.132771, , 
11.04, 0.131626, , 
11.07, 0.130592, , 
11.10, 0.129409, , 
11.13, 0.128498, , 
11.16, 0.127651, , 
11.19, 0.126554, , 
11.22, 0.125755, , 
11.25, 0.124698, , 
11.28, 0.123715, , 
11.31, 0.122925, , 
11.35, 0.121974, , 
11.37, 0.121012, , 
11.40, 0.120061, , 
11.43, 0.119204, , 
11.47, 0.118304, , 
11.49, 0.117546, , 
11.52, 0.116603, , 
11.55, 0.115747, , 
11.58, 0.115071, , 
11.61, 0.114120, , 
11.64, 0.113219, , 
11.67, 0.112290, , 
11.70, 0.111627, , 
11.73, 0.110961, , 
11.76, 0.109930, , 
11.79, 0.109260, , 
11.82, 0.108626, , 
11.85, 0.107757, , 
11.88, 0.106888, , 
11.91, 0.106238, , 
11.94, 0.105619, , 
11.97, 0.104871, , 
12.00, 0.104078, , 
12.03, 0.103462, , 
12.06, 0.102777, , 
12.09, 0.102044, , 
12.12, 0.101274, , 
12.15, 0.100706, , 
12.18, 0.100106, , 
12.21, 0.099243, , 
12.24, 0.098647, , 
12.27, 0.098057, , 
12.30, 0.097597, , 
12.33, 0.096846, , 
12.36, 0.096179, , 
12.40, 0.095434, , 
12.42, 0.095025, , 
12.45, 0.094375, , 
12.48, 0.093648, , 
12.51, 0.093147, , 
12.54, 0.092567, , 
12.57, 0.091878, , 
12.60, 0.091193, , 
12.63, 0.090806, , 
12.66, 0.090067, , 
12.69, 0.089360, , 
12.72, 0.088900, , 
12.75, 0.088373, , 
12.78, 0.087752, , 
12.80, 0.087415, 4, 0.586
12.81, 0.087000, , 
12.84, 0.086508, , 
12.87, 0.086083, , 
12.90, 0.085550, , 
12.93, 0.084960, , 
12.96, 0.084434, , 
12.99, 0.083948, , 
13.02, 0.083438, , 
13.05, 0.082721, , 
13.08, 0.082388, , 
13.11, 0.081918, , 
13.14, 0.081221, , 
13.17, 0.080738, , 
13.20, 0.080145, , 
13.23, 0.079739, , 
13.26, 0.079197, , 
13.29, 0.078667, , 
13.32, 0.078144, , 
13.35, 0.077589, , 
13.38, 0.076992, , 
13.42, 0.076390, , 
13.44, 0.076031, , 
13.47, 0.075457, , 
13.50, 0.074842, , 
13.53, 0.074382, , 
13.56, 0.073979, , 
13.59, 0.073510, , 
13.62, 0.072897, , 
13.65, 0.072390, , 
13.68, 0.071876, , 
13.71, 0.071369, , 
13.74, 0.070785, , 
13.77, 0.070350, , 
13.80, 0.069963, , 
13.83, 0.069554, , 
13.86, 0.069047, , 
13.89, 0.068539, , 
13.92, 0.068092, , 
13.95, 0.067708, , 
13.98, 0.067058, , 
14.01, 0.066598, , 
14.04, 0.066278, , 
14.07, 0.066011, , 
14.10, 0.065611, , 
14.13, 0.065234, , 
14.16, 0.064920, , 
14.19, 0.064504, , 
14.22, 0.064108, , 
14.25, 0.063702, , 
14.28, 0.063470, , 
14.31, 0.063125, , 
14.34, 0.062690, , 
14.37, 0.062281, , 
14.40, 0.062072, , 
14.43, 0.061672, , 
14.46, 0.061266, , 
14.49, 0.061101, , 
14.52, 0.060762, , 
14.55, 0.060387, , 
14.58, 0.060048, , 
14.61, 0.059750, , 
14.64, 0.059613, , 
14.67, 0.059271, , 
14.70, 0.058906, , 
14.73, 0.058751, , 
14.76, 0.058671, , 
14.79, 0.058398, , 
14.82, 0.058132, , 
14.85, 0.057980, , 
14.88, 0.057774, , 
14.91, 0.057447, , 
14.94, 0.057311, , 
14.97, 0.057234, , 
15.00, 0.057031, , 
15.03, 0.056771, , 
15.06, 0.056632, , 
15.09, 0.056556, , 
15.12, 0.056327, , 
15.15, 0.056092, , 
15.18, 0.055972, , 
15.21, 0.055896, , 
15.24, 0.055775, , 
15.27, 0.055474, , 
15.30, 0.055379, , 
15.33, 0.055309, , 
15.36, 0.055065, , 
15.39, 0.054868, , 
15.42, 0.054748, , 
15.45, 0.054589, , 
15.48, 0.054481, , 
15.51, 0.054237, , 
15.54, 0.054120, , 
15.57, 0.054196, , 
15.60, 0.054028, , 
15.63, 0.053790, , 
15.66, 0.053720, , 
15.69, 0.053707, , 
15.72, 0.053571, , 
15.75, 0.053511, , 
15.78, 0.053434, , 
15.81, 0.053279, , 
15.84, 0.053165, , 
15.87, 0.053139, , 
15.90, 0.053168, , 
15.93, 0.053181, , 
15.96, 0.053073, , 
15.99, 0.052968, 5, 0.585
16.00, 0.052965, , 
16.02, 0.052921, , 
16.05, 0.052841, , 
16.08, 0.052718, , 
16.11, 0.052619, , 
16.14, 0.052673, , 
16.17, 0.052670, , 
16.20, 0.052591, , 
16.23, 0.052575, , 
16.26, 0.052610, , 
16.29, 0.052622, , 
16.33, 0.052499, , 
16.35, 0.052445, , 
16.38, 0.052429, , 
16.41, 0.052315, , 
16.44, 0.052197, , 
16.47, 0.052134, , 
16.50, 0.052181, , 
16.53, 0.052055, , 
16.56, 0.051982, , 
16.59, 0.052083, , 
16.62, 0.052191, , 
16.65, 0.052140, , 
16.68, 0.052048, , 
16.71, 0.052131, , 
16.75, 0.052258, , 
16.77, 0.052312, , 
16.80, 0.052372, , 
16.83, 0.052568, , 
16.86, 0.052664, , 
16.89, 0.052657, , 
16.92, 0.052762, , 
16.95, 0.052908, , 
16.98, 0.053070, , 
17.01, 0.053079, , 
17.04, 0.053152, , 
17.07, 0.053415, , 
17.10, 0.053599, , 
17.13, 0.053767, , 
17.16, 0.053850, , 
17.19, 0.054177, , 
17.22, 0.054579, , 
17.25, 0.054703, , 
17.28, 0.054957, , 
17.31, 0.055363, , 
17.34, 0.055680, , 
17.37, 0.055988, , 
17.40, 0.056197, , 
17.43, 0.056533, , 
17.46, 0.056946, , 
17.49, 0.057250, , 
17.52, 0.057717, , 
17.55, 0.058398, , 
17.58, 0.059004, , 
17.61, 0.059426, , 
17.64, 0.059940, , 
17.67, 0.060613, , 
17.70, 0.061231, , 
17.73, 0.061704, , 
17.76, 0.062313, , 
17.79, 0.063153, , 
17.82, 0.063813, , 
17.85, 0.064539, , 
17.88, 0.065133, , 
17.91, 0.065868, , 
17.94, 0.066538, , 
17.97, 0.067210, , 
18.00, 0.067924, , 
18.03, 0.068777, , 
18.06, 0.069408, , 
18.09, 0.070109, , 
18.12, 0.070839, , 
18.15, 0.071562, , 
18.18, 0.072114, , 
18.21, 0.072824, , 
18.24, 0.073560, , 
18.27, 0.074188, , 
18.30, 0.074702, , 
18.33, 0.075169, , 
18.36, 0.075787, , 
18.39, 0.076526, , 
18.42, 0.077088, , 
18.45, 0.077455, , 
18.48, 0.078004, , 
18.51, 0.078547, , 
18.54, 0.078857, , 
18.57, 0.079171, , 
18.60, 0.079644, , 
18.63, 0.079923, , 
18.66, 0.080142, , 
18.69, 0.080361, , 
18.72, 0.080650, , 
18.75, 0.080849, , 
18.78, 0.080945, , 
18.81, 0.081138, , 
18.84, 0.081328, , 
18.87, 0.081303, , 
18.90, 0.081205, , 
18.94, 0.081116, , 
18.96, 0.081078, , 
18.99, 0.080951, , 
19.02, 0.080646, , 
19.05, 0.080491, , 
19.08, 0.080488, , 
19.11, 0.080263, , 
19.14, 0.080018, , 
19.17, 0.079746, , 
19.19, 0.079733, 6, 0.585
19.20, 0.079708, , 
19.23, 0.079222, , 
19.26, 0.078772, , 
19.29, 0.078442, , 
19.32, 0.078179, , 
19.35, 0.077792, , 
19.38, 0.077370, , 
19.41, 0.076913, , 
19.44, 0.076539, , 
19.47, 0.076060, , 
19.50, 0.075597, , 
19.53, 0.075254, , 
19.56, 0.074927, , 
19.59, 0.074391, , 
19.62, 0.073833, , 
19.65, 0.073427, , 
19.68, 0.073031, , 
19.71, 0.072450, , 
19.74, 0.072009, , 
19.77, 0.071806, , 
19.80, 0.071502, , 
19.84, 0.071055, , 
19.86, 0.070582, , 
19.89, 0.070258, , 
19.92, 0.069948, , 
19.95, 0.069345, , 
19.98, 0.068872, , 
20.01, 0.068466, , 
20.04, 0.068111, , 
20.07, 0.067600, , 
20.10, 0.067086, , 
20.13, 0.066718, , 
20.16, 0.066122, , 
20.19, 0.065681, , 
20.22, 0.065361, , 
20.25, 0.065015, , 
20.28, 0.064558, , 
20.31, 0.064111, , 
20.34, 0.063784, , 
20.37, 0.063629, , 
20.40, 0.063061, , 
20.43, 0.062474, , 
20.46, 0.062173, , 
20.49, 0.061929, , 
20.52, 0.061507, , 
20.55, 0.061114, , 
20.58, 0.060835, , 
20.61, 0.060590, , 
20.64, 0.060245, , 
20.67, 0.059740, , 
20.70, 0.059433, , 
20.73, 0.059163, , 
20.76, 0.058760, , 
20.79, 0.058383, , 
20.82, 0.058192, , 
20.85, 0.057831, , 
20.88, 0.057533, , 
20.91, 0.057279, , 
20.94, 0.057111, , 
20.97, 0.056889, , 
21.00, 0.056479, , 
21.03, 0.056124, , 
21.06, 0.055959, , 
21.09, 0.055753, , 
21.12, 0.055528, , 
21.15, 0.055265, , 
21.18, 0.055077, , 
21.21, 0.054840, , 
21.24, 0.054494, , 
21.27, 0.054399, , 
21.30, 0.054180, , 
21.33, 0.053923, , 
21.36, 0.053612, , 
21.39, 0.053431, , 
21.42, 0.053355, , 
21.45, 0.053181, , 
21.48, 0.052949, , 
21.51, 0.052819, , 
21.54, 0.052651, , 
21.57, 0.052603, , 
21.60, 0.052565, , 
21.63, 0.052518, , 
21.66, 0.052461, , 
21.69, 0.052283, , 
21.72, 0.052194, , 
21.75, 0.052239, , 
21.78, 0.052340, , 
21.81, 0.052188, , 
21.84, 0.052064, , 
21.87, 0.052178, , 
21.90, 0.052381, , 
21.93, 0.052413, , 
21.96, 0.052483, , 
21.99, 0.052746, , 
22.02, 0.053089, , 
22.05, 0.053219, , 
22.08, 0.053396, , 
22.11, 0.053847, , 
22.14, 0.054326, , 
22.17, 0.054773, , 
22.20, 0.055493, , 
22.23, 0.056204, , 
22.26, 0.057009, , 
22.29, 0.057669, , 
22.32, 0.058671, , 
22.35, 0.059940, , 
22.38, 0.061158, , 
22.39, 0.061574, 7, 0.586
22.41, 0.062665, , 
22.44, 0.064168, , 
22.47, 0.065951, , 
22.50, 0.068127, , 
22.53, 0.069773, , 
22.56, 0.072031, , 
22.59, 0.074975, , 
22.62, 0.077586, , 
22.65, 0.080837, , 
22.68, 0.084056, , 
22.71, 0.087507, , 
22.74, 0.091193, , 
22.77, 0.094996, , 
22.80, 0.099840, , 
22.83, 0.104290, , 
22.86, 0.108889, , 
22.89, 0.114504, , 
22.92, 0.119785, , 
22.95, 0.125257, , 
22.98, 0.130788, , 
23.01, 0.136615, , 
23.04, 0.143831, , 
23.07, 0.150201, , 
23.10, 0.157572, , 
23.13, 0.164183, , 
23.16, 0.169860, , 
23.19, 0.178022, , 
23.22, 0.184936, , 
23.25, 0.193038, , 
23.28, 0.200213, , 
23.31, 0.207467, , 
23.35, 0.215596, , 
23.37, 0.221296, , 
23.40, 0.229445, , 
23.43, 0.236468, , 
23.46, 0.243132, , 
23.49, 0.250748, , 
23.52, 0.257231, , 
23.55, 0.263404, , 
23.58, 0.269269, , 
23.61, 0.275051, , 
23.64, 0.281522, , 
23.67, 0.286698, , 
23.70, 0.292446, , 
23.73, 0.297147, , 
23.77, 0.301546, , 
23.79, 0.305717, , 
23.82, 0.309476, , 
23.85, 0.313685, , 
23.88, 0.317025, , 
23.91, 0.319991, , 
23.94, 0.322963, , 
23.97, 0.324857, , 
24.00, 0.327283, , 
24.03, 0.328907, , 
24.06, 0.330303, , 
24.09, 0.331645, , 
24.12, 0.332485, , 
24.15, 0.333164, , 
24.18, 0.333342, , 
24.21, 0.333469, , 
24.24, 0.333345, , 
24.27, 0.332837, , 
24.30, 0.331959, , 
24.33, 0.331093, , 
24.36, 0.329954, , 
24.39, 0.328578, , 
24.42, 0.326928, , 
24.45, 0.324885, , 
24.48, 0.323043, , 
24.51, 0.320930, , 
24.54, 0.318348, , 
24.57, 0.316074, , 
24.60, 0.313641, , 
24.63, 0.310948, , 
24.66, 0.308160, , 
24.69, 0.305384, , 
24.72, 0.302060, , 
24.75, 0.298949, , 
24.78, 0.295815, , 
24.81, 0.292224, , 
24.84, 0.289096, , 
24.87, 0.285160, , 
24.90, 0.281842, , 
24.93, 0.279130, , 
24.96, 0.275165, , 
24.99, 0.271638, , 
25.02, 0.267616, , 
25.05, 0.264194, , 
25.08, 0.260704, , 
25.11, 0.257133, , 
25.14, 0.253593, , 
25.17, 0.249787, , 
25.20, 0.246393, , 
25.23, 0.242875, , 
25.26, 0.239015, , 
25.29, 0.235862, , 
25.32, 0.232538, , 
25.35, 0.229128, , 
25.38, 0.225791, , 
25.41, 0.222216, , 
25.44, 0.218987, , 
25.47, 0.215815, , 
25.50, 0.212390, , 
25.53, 0.210046, , 
25.56, 0.206547, , 
25.59, 0.203581, 8, 0.585
25.59, 0.203108, , 
25.62, 0.200393, , 
25.65, 0.197710, , 
25.68, 0.194979, , 
25.71, 0.192276, , 
25.74, 0.189694, , 
25.77, 0.186754, , 
25.80, 0.184172, , 
25.83, 0.181663, , 
25.86, 0.178926, , 
25.89, 0.177003, , 
25.92, 0.174241, , 
25.95, 0.171874, , 
25.98, 0.169727, , 
26.01, 0.167190, , 
26.04, 0.165026, , 
26.07, 0.162822, , 
26.10, 0.160452, , 
26.13, 0.158746, , 
26.16, 0.156265, , 
26.19, 0.154327, , 
26.22, 0.152199, , 
26.25, 0.150343, , 
26.28, 0.148523, , 
26.31, 0.146762, , 
26.34, 0.145065, , 
26.37, 0.143016, , 
26.40, 0.141205, , 
26.43, 0.139479, , 
26.46, 0.137576, , 
26.49, 0.135879, , 
26.52, 0.134151, , 
26.55, 0.132542, , 
26.58, 0.131042, , 
26.61, 0.129171, , 
26.64, 0.127563, , 
26.67, 0.125808, , 
26.70, 0.124403, , 
26.73, 0.123128, , 
26.76, 0.121387, , 
26.79, 0.120045, , 
26.82, 0.118383, , 
26.85, 0.116873, , 
26.88, 0.115458, , 
26.91, 0.114044, , 
26.94, 0.112861, , 
26.97, 0.111462, , 
27.00, 0.109952, , 
27.03, 0.108617, , 
27.06, 0.107471, , 
27.09, 0.106399, , 
27.12, 0.104864, , 
27.15, 0.103821, , 
27.18, 0.102517, , 
27.21, 0.101331, , 
27.24, 0.100236, , 
27.27, 0.099079, , 
27.30, 0.098197, , 
27.33, 0.096896, , 
27.36, 0.095945, , 
27.39, 0.094844, , 
27.42, 0.093886, , 
27.45, 0.092852, , 
27.48, 0.091716, , 
27.51, 0.090933, , 
27.54, 0.090054, , 
27.57, 0.088827, , 
27.60, 0.087847, , 
27.63, 0.086898, , 
27.66, 0.085988, , 
27.69, 0.085084, , 
27.72, 0.084323, , 
27.75, 0.083641, , 
27.78, 0.082676, , 
27.81, 0.081823, , 
27.84, 0.081043, , 
27.87, 0.080177, , 
27.90, 0.079409, , 
27.93, 0.078680, , 
27.96, 0.077769, , 
27.99, 0.077116, , 
28.02, 0.076241, , 
28.05, 0.075565, , 
28.08, 0.074896, , 
28.11, 0.074233, , 
28.14, 0.073468, , 
28.17, 0.072739, , 
28.20, 0.072181, , 
28.23, 0.071708, , 
28.26, 0.071026, , 
28.29, 0.070322, , 
28.32, 0.069859, , 
28.35, 0.069415, , 
28.38, 0.068809, , 
28.41, 0.068206, , 
28.44, 0.067705, , 
28.47, 0.067182, , 
28.50, 0.066614, , 
28.53, 0.066056, , 
28.56, 0.065672, , 
28.59, 0.065148, , 
28.62, 0.064663, , 
28.65, 0.064209, , 
28.68, 0.063816, , 
28.71, 0.063375, , 
28.74, 0.062807, , 
28.77, 0.062395, , 
28.79, 0.062249, 9, 0.585
28.80, 0.062062, , 
28.83, 0.061605, , 
28.86, 0.061098, , 
28.89, 0.060597, , 
28.92, 0.060267, , 
28.95, 0.059873, , 
28.98, 0.059252, , 
29.01, 0.058906, , 
29.04, 0.058624, , 
