Gradient Profiler Text Data File: 5-C5_eIF3b_DMSO_061825.csv
Date: 2025-06-18
Time: 15:13:16

User: Karen
Experiment name: 
UV Unit: EM-1
Rotor Manufacturer: Beckman
Rotor Model: SW28.1
Speed: 28 rpm
Gradient: sucrose 10.0% to 50.0% w/v
Time: 4
w2t:  x 10^0
Sample Volume: 18 ml
Number of Tubes: 6
Volume per mm: 0.183 ml/mm

Absorbance Units Full Scale (AUFS): 2.00
Event Mark-triggered gradient; (with distance; auto start and stop)
Delay: No Delay
UV Wavelength: 254 nm
Samples / sec: 10 Hz
EM1 Speed: 0.30 mm/sec
Distance: 3.20 mm
Number: 30
Dead Volume: 0.000000 ml; Distance due to Dead Volume: 0.00 mm
Total Distance: 96.00 mm

Data Columns:
Distance(mm), Absorbance, Fraction Number, Fraction Volume(ml)
0.00, 0.079432, 0, 0.000
0.03, 0.079451, , 
0.06, 0.079463, , 
0.09, 0.079422, , 
0.12, 0.079406, , 
0.15, 0.079419, , 
0.18, 0.079641, , 
0.21, 0.080209, , 
0.24, 0.081052, , 
0.27, 0.082093, , 
0.30, 0.082800, , 
0.33, 0.083504, , 
0.36, 0.083983, , 
0.39, 0.084434, , 
0.42, 0.084868, , 
0.45, 0.085135, , 
0.48, 0.085452, , 
0.51, 0.085709, , 
0.55, 0.086454, , 
0.57, 0.088763, , 
0.60, 0.095884, , 
0.63, 0.113641, , 
0.66, 0.158197, , 
0.69, 0.219634, , 
0.72, 0.312074, , 
0.75, 0.387046, , 
0.78, 0.483086, , 
0.81, 0.599864, , 
0.84, 0.702358, , 
0.87, 0.823196, , 
0.90, 0.927496, , 
0.93, 1.032255, , 
0.96, 1.137396, , 
0.99, 1.242821, , 
1.02, 1.365778, , 
1.05, 1.471207, , 
1.08, 1.576119, , 
1.11, 1.695536, , 
1.14, 1.791017, , 
1.17, 1.872390, , 
1.20, 1.933649, , 
1.23, 1.974536, , 
1.26, 2.002525, , 
1.29, 2.015568, , 
1.32, 2.023672, , 
1.35, 2.027301, , 
1.38, 2.029036, , 
1.41, 2.030384, , 
1.44, 2.031107, , 
1.47, 2.031583, , 
1.50, 2.031935, , 
1.53, 2.032068, , 
1.56, 2.032278, , 
1.59, 2.032506, , 
1.62, 2.032585, , 
1.65, 2.032642, , 
1.68, 2.032731, , 
1.71, 2.032849, , 
1.74, 2.032925, , 
1.77, 2.032925, , 
1.80, 2.033010, , 
1.83, 2.033118, , 
1.86, 2.033144, , 
1.89, 2.033144, , 
1.92, 2.033229, , 
1.95, 2.033274, , 
1.98, 2.033248, , 
2.01, 2.033248, , 
2.04, 2.033324, , 
2.07, 2.033372, , 
2.10, 2.033353, , 
2.13, 2.033385, , 
2.16, 2.033451, , 
2.19, 2.033480, , 
2.22, 2.033458, , 
2.25, 2.033467, , 
2.28, 2.033524, , 
2.31, 2.033543, , 
2.34, 2.033531, , 
2.37, 2.033562, , 
2.40, 2.033562, , 
2.43, 2.033550, , 
2.46, 2.033578, , 
2.49, 2.033603, , 
2.52, 2.033661, , 
2.55, 2.033657, , 
2.58, 2.033629, , 
2.61, 2.033664, , 
2.64, 2.033711, , 
2.67, 2.033699, , 
2.70, 2.033692, , 
2.73, 2.033702, , 
2.76, 2.033740, , 
2.79, 2.033730, , 
2.82, 2.033676, , 
2.85, 2.033730, , 
2.88, 2.033778, , 
2.91, 2.033768, , 
2.94, 2.033753, , 
2.97, 2.033702, , 
3.00, 2.033778, , 
3.03, 2.033759, , 
3.06, 2.033746, , 
3.09, 2.033768, , 
3.12, 2.033765, , 
3.15, 2.033775, , 
3.18, 2.033759, , 
3.19, 2.033756, 1, 0.584
3.21, 2.033787, , 
3.24, 2.033845, , 
3.27, 2.033800, , 
3.30, 2.033794, , 
3.33, 2.033860, , 
3.36, 2.033870, , 
3.39, 2.033857, , 
3.42, 2.033768, , 
3.45, 2.033810, , 
3.48, 2.033873, , 
3.51, 2.033870, , 
3.54, 2.033848, , 
3.57, 2.033867, , 
3.60, 2.033740, , 
3.63, 2.033172, , 
3.66, 2.031926, , 
3.69, 2.029857, , 
3.72, 2.026175, , 
3.76, 2.021683, , 
3.78, 2.015895, , 
3.81, 2.008872, , 
3.84, 2.000606, , 
3.87, 1.989548, , 
3.90, 1.978929, , 
3.93, 1.967351, , 
3.96, 1.952488, , 
3.99, 1.940970, , 
4.02, 1.923566, , 
4.05, 1.907535, , 
4.08, 1.887672, , 
4.11, 1.869649, , 
4.14, 1.850986, , 
4.17, 1.831945, , 
4.20, 1.812745, , 
4.23, 1.790262, , 
4.26, 1.771202, , 
4.29, 1.752370, , 
4.32, 1.730550, , 
4.36, 1.712026, , 
4.38, 1.693655, , 
4.41, 1.675511, , 
4.44, 1.654599, , 
4.47, 1.637067, , 
4.50, 1.619951, , 
4.53, 1.600527, , 
4.56, 1.586767, , 
4.59, 1.567668, , 
4.62, 1.551181, , 
4.65, 1.531781, , 
4.69, 1.514964, , 
4.71, 1.498095, , 
4.74, 1.481233, , 
4.77, 1.464216, , 
4.80, 1.444271, , 
4.83, 1.427260, , 
4.86, 1.407774, , 
4.89, 1.394113, , 
4.92, 1.377901, , 
4.95, 1.359101, , 
4.98, 1.343064, , 
5.01, 1.326960, , 
5.04, 1.310742, , 
5.07, 1.291663, , 
5.10, 1.275356, , 
5.13, 1.259036, , 
5.16, 1.240141, , 
5.19, 1.224259, , 
5.22, 1.206135, , 
5.25, 1.193574, , 
5.28, 1.179005, , 
5.31, 1.162714, , 
5.34, 1.149265, , 
5.37, 1.134033, , 
5.40, 1.121330, , 
5.43, 1.108893, , 
5.46, 1.096693, , 
5.49, 1.084570, , 
5.52, 1.070537, , 
5.55, 1.058681, , 
5.58, 1.046970, , 
5.61, 1.033531, , 
5.64, 1.022229, , 
5.67, 1.011175, , 
5.70, 1.000241, , 
5.73, 0.989231, , 
5.76, 0.976344, , 
5.79, 0.965232, , 
5.82, 0.952094, , 
5.85, 0.940821, , 
5.88, 0.929523, , 
5.91, 0.918256, , 
5.94, 0.907056, , 
5.97, 0.895843, , 
6.00, 0.882794, , 
6.03, 0.871733, , 
6.06, 0.860749, , 
6.09, 0.849841, , 
6.12, 0.837327, , 
6.15, 0.826965, , 
6.18, 0.816843, , 
6.21, 0.805323, , 
6.24, 0.797393, , 
6.27, 0.786668, , 
6.30, 0.777682, , 
6.33, 0.768766, , 
6.36, 0.758387, , 
6.39, 0.751038, 2, 0.584
6.39, 0.749579, , 
6.42, 0.739695, , 
6.45, 0.732945, , 
6.48, 0.723740, , 
6.51, 0.715868, , 
6.54, 0.707992, , 
6.57, 0.700078, , 
6.60, 0.692303, , 
6.63, 0.683447, , 
6.66, 0.675933, , 
6.69, 0.667115, , 
6.72, 0.659575, , 
6.75, 0.651975, , 
6.78, 0.644283, , 
6.81, 0.636639, , 
6.84, 0.627913, , 
6.87, 0.620494, , 
6.90, 0.613075, , 
6.93, 0.605453, , 
6.96, 0.596276, , 
6.99, 0.588254, , 
7.02, 0.580252, , 
7.05, 0.572328, , 
7.08, 0.563167, , 
7.11, 0.555491, , 
7.14, 0.546705, , 
7.17, 0.539219, , 
7.20, 0.533101, , 
7.23, 0.524717, , 
7.26, 0.517599, , 
7.29, 0.509527, , 
7.32, 0.502793, , 
7.35, 0.496224, , 
7.38, 0.488725, , 
7.41, 0.483527, , 
7.44, 0.476678, , 
7.47, 0.471197, , 
7.50, 0.465967, , 
7.53, 0.460061, , 
7.56, 0.455103, , 
7.59, 0.449466, , 
7.62, 0.445400, , 
7.65, 0.440544, , 
7.68, 0.435088, , 
7.71, 0.430520, , 
7.74, 0.425128, , 
7.77, 0.420545, , 
7.80, 0.416063, , 
7.83, 0.411590, , 
7.86, 0.407146, , 
7.89, 0.402722, , 
7.92, 0.397605, , 
7.95, 0.393206, , 
7.98, 0.387934, , 
8.01, 0.383303, , 
8.04, 0.378719, , 
8.07, 0.374231, , 
8.10, 0.369781, , 
8.13, 0.364589, , 
8.16, 0.360202, , 
8.19, 0.355802, , 
8.22, 0.351412, , 
8.25, 0.346347, , 
8.28, 0.342106, , 
8.31, 0.337887, , 
8.34, 0.333012, , 
8.37, 0.329650, , 
8.40, 0.325111, , 
8.43, 0.321355, , 
8.46, 0.317774, , 
8.49, 0.313819, , 
8.52, 0.310685, , 
8.55, 0.307678, , 
8.58, 0.304591, , 
8.61, 0.301461, , 
8.64, 0.297784, , 
8.67, 0.294651, , 
8.70, 0.291025, , 
8.73, 0.288043, , 
8.76, 0.285125, , 
8.79, 0.282251, , 
8.82, 0.279447, , 
8.85, 0.276260, , 
8.88, 0.273516, , 
8.91, 0.270664, , 
8.94, 0.267156, , 
8.97, 0.263959, , 
9.00, 0.260704, , 
9.03, 0.257361, , 
9.06, 0.253311, , 
9.09, 0.249844, , 
9.12, 0.246497, , 
9.15, 0.242615, , 
9.18, 0.239833, , 
9.21, 0.236163, , 
9.24, 0.233166, , 
9.27, 0.230251, , 
9.30, 0.226895, , 
9.33, 0.224123, , 
9.37, 0.221065, , 
9.39, 0.218981, , 
9.42, 0.216573, , 
9.45, 0.213991, , 
9.48, 0.212037, , 
9.51, 0.209820, , 
9.54, 0.207958, , 
9.57, 0.206249, , 
9.59, 0.205440, 3, 0.586
9.60, 0.204625, , 
9.63, 0.202969, , 
9.66, 0.201018, , 
9.69, 0.199486, , 
9.72, 0.197999, , 
9.75, 0.196187, , 
9.78, 0.194909, , 
9.81, 0.193136, , 
9.84, 0.191531, , 
9.87, 0.189859, , 
9.90, 0.188140, , 
9.93, 0.186123, , 
9.96, 0.184375, , 
9.99, 0.182326, , 
10.02, 0.180543, , 
10.05, 0.178989, , 
10.08, 0.176797, , 
10.11, 0.174494, , 
10.14, 0.172534, , 
10.17, 0.170698, , 
10.20, 0.168934, , 
10.23, 0.167224, , 
10.26, 0.165312, , 
10.29, 0.163761, , 
10.32, 0.162260, , 
10.35, 0.160579, , 
10.39, 0.159253, , 
10.41, 0.158096, , 
10.44, 0.157017, , 
10.47, 0.155910, , 
10.50, 0.154654, , 
10.53, 0.153699, , 
10.56, 0.152738, , 
10.60, 0.151913, , 
10.62, 0.151228, , 
10.65, 0.150289, , 
10.68, 0.149506, , 
10.71, 0.148624, , 
10.74, 0.147907, , 
10.77, 0.147260, , 
10.80, 0.146588, , 
10.83, 0.145788, , 
10.86, 0.144954, , 
10.89, 0.144285, , 
10.92, 0.143552, , 
10.95, 0.142661, , 
10.98, 0.142033, , 
11.01, 0.141205, , 
11.04, 0.140425, , 
11.07, 0.139556, , 
11.10, 0.138645, , 
11.13, 0.137938, , 
11.16, 0.137062, , 
11.19, 0.136273, , 
11.22, 0.135673, , 
11.25, 0.134953, , 
11.28, 0.134319, , 
11.31, 0.133573, , 
11.34, 0.132990, , 
11.37, 0.132511, , 
11.40, 0.131978, , 
11.43, 0.131594, , 
11.46, 0.131236, , 
11.49, 0.130972, , 
11.52, 0.130582, , 
11.55, 0.130091, , 
11.58, 0.129732, , 
11.61, 0.129358, , 
11.64, 0.129079, , 
11.67, 0.128803, , 
11.70, 0.128559, , 
11.73, 0.128349, , 
11.76, 0.128051, , 
11.79, 0.127826, , 
11.82, 0.127651, , 
11.85, 0.127385, , 
11.88, 0.127036, , 
11.91, 0.126582, , 
11.94, 0.126173, , 
11.97, 0.125748, , 
12.00, 0.125218, , 
12.03, 0.124762, , 
12.06, 0.124343, , 
12.09, 0.123896, , 
12.12, 0.123423, , 
12.15, 0.122932, , 
12.18, 0.122532, , 
12.21, 0.122097, , 
12.25, 0.121552, , 
12.27, 0.121203, , 
12.30, 0.120832, , 
12.33, 0.120543, , 
12.36, 0.120232, , 
12.39, 0.119956, , 
12.42, 0.119744, , 
12.45, 0.119525, , 
12.48, 0.119268, , 
12.51, 0.119119, , 
12.54, 0.119030, , 
12.57, 0.118944, , 
12.60, 0.118732, , 
12.63, 0.118608, , 
12.66, 0.118526, , 
12.69, 0.118342, , 
12.72, 0.118151, , 
12.75, 0.118015, , 
12.78, 0.117879, , 
12.79, 0.117828, 4, 0.586
12.81, 0.117695, , 
12.84, 0.117463, , 
12.87, 0.117314, , 
12.90, 0.117082, , 
12.93, 0.116826, , 
12.96, 0.116603, , 
12.99, 0.116353, , 
13.02, 0.116058, , 
13.05, 0.115608, , 
13.08, 0.115347, , 
13.11, 0.115084, , 
13.14, 0.114738, , 
13.17, 0.114364, , 
13.20, 0.113933, , 
13.23, 0.113692, , 
13.26, 0.113400, , 
13.29, 0.113029, , 
13.32, 0.112731, , 
13.35, 0.112439, , 
13.38, 0.112112, , 
13.41, 0.111782, , 
13.44, 0.111459, , 
13.47, 0.111179, , 
13.50, 0.110900, , 
13.53, 0.110590, , 
13.56, 0.110282, , 
13.59, 0.109904, , 
13.62, 0.109562, , 
13.65, 0.109213, , 
13.68, 0.108858, , 
13.71, 0.108537, , 
13.74, 0.108182, , 
13.77, 0.107725, , 
13.80, 0.107275, , 
13.83, 0.106831, , 
13.86, 0.106390, , 
13.89, 0.105930, , 
13.92, 0.105416, , 
13.95, 0.105026, , 
13.98, 0.104588, , 
14.01, 0.104109, , 
14.04, 0.103649, , 
14.07, 0.103196, , 
14.10, 0.102748, , 
14.13, 0.102209, , 
14.16, 0.101800, , 
14.19, 0.101483, , 
14.22, 0.100960, , 
14.25, 0.100506, , 
14.28, 0.100024, , 
14.31, 0.099592, , 
14.34, 0.099164, , 
14.37, 0.098723, , 
14.40, 0.098371, , 
14.43, 0.098045, , 
14.46, 0.097677, , 
14.49, 0.097274, , 
14.52, 0.096858, , 
14.55, 0.096531, , 
14.58, 0.096221, , 
14.61, 0.095792, , 
14.64, 0.095494, , 
14.67, 0.095057, , 
14.70, 0.094638, , 
14.73, 0.094175, , 
14.76, 0.093731, , 
14.79, 0.093388, , 
14.82, 0.093061, , 
14.85, 0.092678, , 
14.88, 0.092319, , 
14.91, 0.092005, , 
14.94, 0.091485, , 
14.97, 0.091057, , 
15.00, 0.090581, , 
15.03, 0.090197, , 
15.06, 0.089842, , 
15.09, 0.089531, , 
15.12, 0.089160, , 
15.15, 0.088770, , 
15.18, 0.088332, , 
15.21, 0.087977, , 
15.25, 0.087691, , 
15.27, 0.087365, , 
15.30, 0.087025, , 
15.33, 0.086771, , 
15.36, 0.086445, , 
15.39, 0.086124, , 
15.42, 0.085858, , 
15.45, 0.085591, , 
15.48, 0.085347, , 
15.51, 0.085122, , 
15.54, 0.084871, , 
15.57, 0.084580, , 
15.60, 0.084408, , 
15.63, 0.084164, , 
15.66, 0.083904, , 
15.69, 0.083714, , 
15.72, 0.083482, , 
15.75, 0.083301, , 
15.78, 0.083054, , 
15.81, 0.082851, , 
15.84, 0.082718, , 
15.87, 0.082531, , 
15.90, 0.082242, , 
15.93, 0.081975, , 
15.96, 0.081798, , 
15.99, 0.081636, 5, 0.585
15.99, 0.081595, , 
16.02, 0.081398, , 
16.05, 0.081195, , 
16.08, 0.080983, , 
16.11, 0.080802, , 
16.14, 0.080659, , 
16.17, 0.080529, , 
16.20, 0.080370, , 
16.23, 0.080190, , 
16.26, 0.079984, , 
16.30, 0.079869, , 
16.32, 0.079768, , 
16.35, 0.079644, , 
16.38, 0.079587, , 
16.41, 0.079590, , 
16.44, 0.079549, , 
16.47, 0.079413, , 
16.51, 0.079254, , 
16.53, 0.079194, , 
16.56, 0.079146, , 
16.59, 0.079073, , 
16.62, 0.079054, , 
16.65, 0.079054, , 
16.68, 0.079067, , 
16.71, 0.079035, , 
16.74, 0.079048, , 
16.77, 0.079083, , 
16.80, 0.079054, , 
16.83, 0.079054, , 
16.86, 0.079203, , 
16.89, 0.079378, , 
16.92, 0.079419, , 
16.95, 0.079460, , 
16.98, 0.079495, , 
17.01, 0.079558, , 
17.04, 0.079546, , 
17.07, 0.079527, , 
17.10, 0.079606, , 
17.13, 0.079730, , 
17.16, 0.079847, , 
17.19, 0.079926, , 
17.22, 0.080022, , 
17.25, 0.080206, , 
17.28, 0.080329, , 
17.31, 0.080418, , 
17.34, 0.080510, , 
17.37, 0.080751, , 
17.40, 0.080976, , 
17.43, 0.081135, , 
17.46, 0.081392, , 
17.49, 0.081734, , 
17.52, 0.081995, , 
17.55, 0.082217, , 
17.58, 0.082584, , 
17.61, 0.082889, , 
17.64, 0.083152, , 
17.67, 0.083431, , 
17.70, 0.083844, , 
17.73, 0.084243, , 
17.76, 0.084611, , 
17.79, 0.085017, , 
17.82, 0.085455, , 
17.85, 0.086026, , 
17.88, 0.086568, , 
17.91, 0.087174, , 
17.94, 0.087736, , 
17.97, 0.088237, , 
18.00, 0.088938, , 
18.03, 0.089579, , 
18.06, 0.090349, , 
18.09, 0.091009, , 
18.12, 0.091685, , 
18.16, 0.092617, , 
18.18, 0.093328, , 
18.21, 0.094216, , 
18.24, 0.095187, , 
18.27, 0.096027, , 
18.30, 0.096915, , 
18.33, 0.097949, , 
18.36, 0.098793, , 
18.39, 0.099827, , 
18.42, 0.100817, , 
18.45, 0.101648, , 
18.48, 0.102761, , 
18.51, 0.103773, , 
18.54, 0.104836, , 
18.57, 0.105860, , 
18.60, 0.107002, , 
18.63, 0.108030, , 
18.66, 0.109292, , 
18.69, 0.110342, , 
18.72, 0.111344, , 
18.76, 0.112569, , 
18.78, 0.113451, , 
18.81, 0.114634, , 
18.84, 0.115614, , 
18.87, 0.116594, , 
18.90, 0.117527, , 
18.93, 0.118538, , 
18.96, 0.119407, , 
18.99, 0.120461, , 
19.02, 0.121339, , 
19.05, 0.122218, , 
19.08, 0.123036, , 
19.11, 0.123915, , 
19.14, 0.124860, , 
19.17, 0.125586, , 
19.18, 0.125808, 6, 0.585
19.20, 0.126284, , 
19.23, 0.126988, , 
19.26, 0.127772, , 
19.29, 0.128340, , 
19.32, 0.128892, , 
19.35, 0.129526, , 
19.38, 0.130217, , 
19.41, 0.130655, , 
19.44, 0.131242, , 
19.47, 0.131629, , 
19.50, 0.132016, , 
19.53, 0.132305, , 
19.56, 0.132669, , 
19.59, 0.133053, , 
19.62, 0.133383, , 
19.65, 0.133608, , 
19.68, 0.133846, , 
19.71, 0.134170, , 
19.75, 0.134376, , 
19.77, 0.134458, , 
19.80, 0.134544, , 
19.83, 0.134718, , 
19.86, 0.134902, , 
19.89, 0.134991, , 
19.92, 0.135039, , 
19.95, 0.135061, , 
19.98, 0.135102, , 
20.01, 0.135055, , 
20.04, 0.134994, , 
20.07, 0.134940, , 
20.10, 0.134842, , 
20.13, 0.134715, , 
20.16, 0.134652, , 
20.19, 0.134576, , 
20.22, 0.134382, , 
20.25, 0.134255, , 
20.28, 0.134122, , 
20.31, 0.133973, , 
20.34, 0.133770, , 
20.37, 0.133532, , 
20.40, 0.133326, , 
20.43, 0.133069, , 
20.46, 0.132787, , 
20.49, 0.132466, , 
20.52, 0.132213, , 
20.55, 0.131956, , 
20.58, 0.131597, , 
20.61, 0.131264, , 
20.64, 0.130982, , 
20.67, 0.130671, , 
20.70, 0.130198, , 
20.73, 0.129770, , 
20.76, 0.129317, , 
20.79, 0.128838, , 
20.82, 0.128454, , 
20.85, 0.127975, , 
20.88, 0.127509, , 
20.91, 0.127118, , 
20.94, 0.126782, , 
20.97, 0.126364, , 
21.00, 0.126053, , 
21.03, 0.125637, , 
21.06, 0.125225, , 
21.09, 0.124746, , 
21.12, 0.124264, , 
21.15, 0.123947, , 
21.18, 0.123429, , 
21.21, 0.122985, , 
21.24, 0.122617, , 
21.27, 0.122278, , 
21.30, 0.121955, , 
21.33, 0.121596, , 
21.36, 0.121374, , 
21.39, 0.121117, , 
21.42, 0.120759, , 
21.45, 0.120473, , 
21.48, 0.120172, , 
21.51, 0.119969, , 
21.54, 0.119782, , 
21.57, 0.119468, , 
21.60, 0.119252, , 
21.63, 0.119055, , 
21.66, 0.118897, , 
21.69, 0.118732, , 
21.72, 0.118554, , 
21.75, 0.118481, , 
21.78, 0.118351, , 
21.81, 0.118300, , 
21.84, 0.118285, , 
21.87, 0.118285, , 
21.90, 0.118231, , 
21.94, 0.118221, , 
21.96, 0.118250, , 
21.99, 0.118335, , 
22.02, 0.118478, , 
22.05, 0.118646, , 
22.08, 0.118900, , 
22.11, 0.119103, , 
22.14, 0.119357, , 
22.17, 0.119706, , 
22.20, 0.120083, , 
22.23, 0.120556, , 
22.26, 0.120978, , 
22.29, 0.121466, , 
22.32, 0.122170, , 
22.35, 0.122662, , 
22.38, 0.123464, , 
22.39, 0.123705, 7, 0.588
22.41, 0.124261, , 
22.44, 0.125174, , 
22.47, 0.126132, , 
22.50, 0.127318, , 
22.53, 0.128327, , 
22.56, 0.129951, , 
22.59, 0.131331, , 
22.62, 0.132815, , 
22.65, 0.134506, , 
22.68, 0.136377, , 
22.71, 0.138747, , 
22.74, 0.140910, , 
22.77, 0.143267, , 
22.80, 0.146280, , 
22.83, 0.149094, , 
22.86, 0.152101, , 
22.89, 0.155320, , 
22.92, 0.158771, , 
22.95, 0.163129, , 
22.98, 0.167142, , 
23.01, 0.172166, , 
23.05, 0.176699, , 
23.07, 0.181400, , 
23.10, 0.186329, , 
23.13, 0.191534, , 
23.16, 0.197012, , 
23.19, 0.203692, , 
23.22, 0.209655, , 
23.25, 0.215822, , 
23.28, 0.223311, , 
23.31, 0.229940, , 
23.34, 0.236687, , 
23.37, 0.243516, , 
23.40, 0.250469, , 
23.43, 0.257425, , 
23.46, 0.265719, , 
23.49, 0.272939, , 
23.52, 0.281338, , 
23.55, 0.288526, , 
23.58, 0.295707, , 
23.62, 0.304065, , 
23.64, 0.309961, , 
23.67, 0.317914, , 
23.70, 0.324562, , 
23.73, 0.331220, , 
23.76, 0.338851, , 
23.79, 0.345087, , 
23.82, 0.351057, , 
23.85, 0.356801, , 
23.88, 0.362340, , 
23.91, 0.368468, , 
23.94, 0.373483, , 
23.97, 0.378244, , 
24.00, 0.382694, , 
24.03, 0.387585, , 
24.06, 0.391499, , 
24.09, 0.395683, , 
24.12, 0.398918, , 
24.15, 0.401897, , 
24.18, 0.404615, , 
24.21, 0.407406, , 
24.24, 0.409173, , 
24.27, 0.411321, , 
24.30, 0.412748, , 
24.33, 0.414226, , 
24.36, 0.415374, , 
24.39, 0.416085, , 
24.42, 0.416672, , 
24.45, 0.416983, , 
24.48, 0.416989, , 
24.51, 0.416700, , 
24.54, 0.416272, , 
24.57, 0.415701, , 
24.60, 0.414651, , 
24.63, 0.413544, , 
24.66, 0.412342, , 
24.69, 0.410753, , 
24.72, 0.409230, , 
24.75, 0.407464, , 
24.78, 0.405801, , 
24.81, 0.403686, , 
24.84, 0.401221, , 
24.87, 0.398941, , 
24.90, 0.396568, , 
24.93, 0.393688, , 
24.96, 0.391122, , 
24.99, 0.388530, , 
25.02, 0.385907, , 
25.05, 0.383236, , 
25.08, 0.379991, , 
25.11, 0.377168, , 
25.14, 0.374399, , 
25.17, 0.371139, , 
25.20, 0.368309, , 
25.23, 0.365429, , 
25.26, 0.362527, , 
25.29, 0.359675, , 
25.32, 0.356817, , 
25.35, 0.353541, , 
25.38, 0.350727, , 
25.41, 0.347514, , 
25.44, 0.344742, , 
25.47, 0.342030, , 
25.50, 0.339315, , 
25.53, 0.336593, , 
25.56, 0.333852, , 
25.59, 0.331115, 8, 0.585
25.59, 0.330662, , 
25.62, 0.328003, , 
25.65, 0.325415, , 
25.68, 0.322338, , 
25.71, 0.319712, , 
25.74, 0.317197, , 
25.77, 0.314323, , 
25.80, 0.311814, , 
25.83, 0.309318, , 
25.86, 0.306869, , 
25.89, 0.304477, , 
25.92, 0.301632, , 
25.95, 0.299186, , 
25.98, 0.296462, , 
26.01, 0.294222, , 
26.04, 0.291986, , 
26.07, 0.289322, , 
26.10, 0.287431, , 
26.13, 0.285160, , 
26.16, 0.282461, , 
26.19, 0.280221, , 
26.22, 0.278039, , 
26.25, 0.275866, , 
26.28, 0.273389, , 
26.31, 0.271289, , 
26.34, 0.269237, , 
26.37, 0.266785, , 
26.40, 0.264641, , 
26.43, 0.262474, , 
26.46, 0.260286, , 
26.49, 0.257805, , 
26.52, 0.255604, , 
26.55, 0.253092, , 
26.59, 0.251014, , 
26.61, 0.249292, , 
26.64, 0.246894, , 
26.67, 0.244785, , 
26.70, 0.242650, , 
26.73, 0.240179, , 
26.76, 0.238104, , 
26.79, 0.236027, , 
26.82, 0.233642, , 
26.85, 0.231986, , 
26.88, 0.229632, , 
26.91, 0.227609, , 
26.94, 0.225655, , 
26.97, 0.223364, , 
27.00, 0.221369, , 
27.03, 0.219070, , 
27.06, 0.217474, , 
27.09, 0.215514, , 
27.12, 0.213214, , 
27.15, 0.211359, , 
27.18, 0.209291, , 
27.21, 0.207473, , 
27.24, 0.205573, , 
27.27, 0.203660, , 
27.30, 0.201833, , 
27.33, 0.199718, , 
27.36, 0.197919, , 
27.39, 0.195880, , 
27.42, 0.194164, , 
27.45, 0.192730, , 
27.48, 0.190643, , 
27.51, 0.188860, , 
27.54, 0.187141, , 
27.57, 0.185111, , 
27.60, 0.183347, , 
27.63, 0.181340, , 
27.66, 0.179712, , 
27.69, 0.178342, , 
27.72, 0.176401, , 
27.75, 0.174789, , 
27.78, 0.172947, , 
27.81, 0.171357, , 
27.84, 0.169841, , 
27.87, 0.168395, , 
27.90, 0.166695, , 
27.93, 0.165213, , 
27.96, 0.163672, , 
27.99, 0.162162, , 
28.02, 0.160500, , 
28.05, 0.159063, , 
28.08, 0.157686, , 
28.11, 0.156138, , 
28.15, 0.154800, , 
28.17, 0.153471, , 
28.20, 0.152142, , 
28.23, 0.150876, , 
28.26, 0.149493, , 
28.29, 0.148326, , 
28.32, 0.146842, , 
28.35, 0.145788, , 
28.38, 0.144542, , 
28.41, 0.143118, , 
28.44, 0.141900, , 
28.47, 0.140590, , 
28.50, 0.139492, , 
28.53, 0.138382, , 
28.56, 0.137246, , 
28.59, 0.136152, , 
28.62, 0.134909, , 
28.65, 0.133811, , 
28.68, 0.132723, , 
28.71, 0.131569, , 
28.74, 0.130633, , 
28.77, 0.129834, , 
28.78, 0.129336, 9, 0.585
28.80, 0.128676, , 
28.83, 0.127724, , 
28.86, 0.126592, , 
28.89, 0.125612, , 
28.92, 0.124498, , 
28.95, 0.123642, , 
28.98, 0.123023, , 
29.01, 0.122119, , 
29.04, 0.121339, , 
