Gradient Profiler Text Data File: 2-C2_SH_42_012126.csv
Date: 2026-01-21
Time: 15:41:29

User: Karen
Experiment name: 
UV Unit: EM-1
Rotor Manufacturer: Beckman
Rotor Model: SW28.1
Speed: 28 rpm
Gradient: sucrose 10.0% to 50.0% w/v
Time: 4
w2t:  x 10^0
Sample Volume: 18 ml
Number of Tubes: 6
Volume per mm: 0.183 ml/mm

Absorbance Units Full Scale (AUFS): 2.00
Event Mark-triggered gradient; (with distance; auto start and stop)
Delay: No Delay
UV Wavelength: 254 nm
Samples / sec: 10 Hz
EM1 Speed: 0.30 mm/sec
Distance: 3.20 mm
Number: 30
Dead Volume: 0.000000 ml; Distance due to Dead Volume: 0.00 mm
Total Distance: 96.00 mm

Data Columns:
Distance(mm), Absorbance, Fraction Number, Fraction Volume(ml)
0.00, 0.081316, 0, 0.000
0.03, 0.081338, , 
0.06, 0.081322, , 
0.09, 0.081335, , 
0.12, 0.081366, , 
0.15, 0.081373, , 
0.18, 0.081341, , 
0.21, 0.081338, , 
0.24, 0.081351, , 
0.27, 0.081376, , 
0.30, 0.081335, , 
0.33, 0.081313, , 
0.36, 0.081386, , 
0.39, 0.081389, , 
0.42, 0.081347, , 
0.45, 0.081332, , 
0.48, 0.081366, , 
0.51, 0.081363, , 
0.54, 0.081344, , 
0.57, 0.082163, , 
0.60, 0.085699, , 
0.63, 0.098498, , 
0.66, 0.117225, , 
0.69, 0.158321, , 
0.72, 0.204263, , 
0.75, 0.256343, , 
0.78, 0.321539, , 
0.81, 0.379687, , 
0.84, 0.438932, , 
0.87, 0.498397, , 
0.90, 0.558283, , 
0.93, 0.628652, , 
0.96, 0.689344, , 
0.99, 0.760570, , 
1.02, 0.821861, , 
1.05, 0.873154, , 
1.08, 0.944831, , 
1.11, 1.005081, , 
1.14, 1.070557, , 
1.17, 1.117596, , 
1.20, 1.152675, , 
1.23, 1.178907, , 
1.26, 1.190697, , 
1.29, 1.201148, , 
1.32, 1.206874, , 
1.35, 1.210905, , 
1.38, 1.214562, , 
1.41, 1.217319, , 
1.44, 1.220094, , 
1.47, 1.221867, , 
1.50, 1.223929, , 
1.53, 1.226324, , 
1.56, 1.228519, , 
1.59, 1.231396, , 
1.62, 1.234127, , 
1.65, 1.237232, , 
1.68, 1.240312, , 
1.71, 1.243509, , 
1.74, 1.247458, , 
1.77, 1.250887, , 
1.80, 1.254281, , 
1.83, 1.258170, , 
1.87, 1.261294, , 
1.89, 1.264229, , 
1.92, 1.266956, , 
1.95, 1.269516, , 
1.98, 1.272314, , 
2.01, 1.274382, , 
2.04, 1.276174, , 
2.07, 1.277113, , 
2.10, 1.278061, , 
2.13, 1.278949, , 
2.16, 1.279530, , 
2.19, 1.280288, , 
2.22, 1.281049, , 
2.25, 1.281661, , 
2.28, 1.281991, , 
2.31, 1.282128, , 
2.34, 1.282217, , 
2.37, 1.282534, , 
2.40, 1.283013, , 
2.43, 1.283780, , 
2.46, 1.284516, , 
2.49, 1.285182, , 
2.52, 1.285928, , 
2.55, 1.286924, , 
2.58, 1.288462, , 
2.61, 1.289874, , 
2.64, 1.291390, , 
2.67, 1.292456, , 
2.70, 1.293090, , 
2.73, 1.293540, , 
2.76, 1.293670, , 
2.79, 1.293851, , 
2.82, 1.294149, , 
2.85, 1.294482, , 
2.89, 1.294635, , 
2.91, 1.294597, , 
2.94, 1.294435, , 
2.97, 1.294153, , 
3.00, 1.293664, , 
3.03, 1.293007, , 
3.06, 1.292310, , 
3.09, 1.291333, , 
3.12, 1.290089, , 
3.15, 1.288659, , 
3.18, 1.286746, 1, 0.582
3.19, 1.286448, , 
3.21, 1.284932, , 
3.24, 1.282683, , 
3.27, 1.280821, , 
3.30, 1.279340, , 
3.33, 1.277103, , 
3.36, 1.275083, , 
3.39, 1.272606, , 
3.42, 1.270319, , 
3.45, 1.267740, , 
3.48, 1.264454, , 
3.51, 1.262084, , 
3.54, 1.258633, , 
3.57, 1.255575, , 
3.60, 1.252476, , 
3.63, 1.248702, , 
3.66, 1.245289, , 
3.69, 1.241086, , 
3.72, 1.237974, , 
3.75, 1.234187, , 
3.78, 1.229359, , 
3.81, 1.224805, , 
3.84, 1.218978, , 
3.87, 1.213662, , 
3.90, 1.208069, , 
3.93, 1.202287, , 
3.96, 1.196387, , 
3.99, 1.189441, , 
4.02, 1.183252, , 
4.05, 1.176788, , 
4.08, 1.168947, , 
4.11, 1.161997, , 
4.14, 1.154841, , 
4.17, 1.147628, , 
4.20, 1.140336, , 
4.23, 1.131718, , 
4.26, 1.124169, , 
4.29, 1.115224, , 
4.32, 1.108861, , 
4.35, 1.101337, , 
4.38, 1.092456, , 
4.41, 1.084726, , 
4.44, 1.075498, , 
4.47, 1.067366, , 
4.50, 1.058830, , 
4.53, 1.049961, , 
4.56, 1.040918, , 
4.59, 1.030346, , 
4.62, 1.021312, , 
4.65, 1.012323, , 
4.68, 1.002033, , 
4.71, 0.993304, , 
4.74, 0.984527, , 
4.77, 0.975798, , 
4.80, 0.967117, , 
4.83, 0.956874, , 
4.86, 0.948006, , 
4.89, 0.937719, , 
4.92, 0.929145, , 
4.95, 0.922151, , 
4.98, 0.912578, , 
5.01, 0.904607, , 
5.04, 0.895732, , 
5.07, 0.888449, , 
5.10, 0.881366, , 
5.13, 0.873510, , 
5.16, 0.868073, , 
5.19, 0.860463, , 
5.22, 0.853964, , 
5.25, 0.847579, , 
5.28, 0.840265, , 
5.31, 0.834130, , 
5.34, 0.827967, , 
5.37, 0.821702, , 
5.40, 0.815349, , 
5.43, 0.807749, , 
5.46, 0.801097, , 
5.49, 0.793307, , 
5.52, 0.786557, , 
5.55, 0.780842, , 
5.58, 0.772870, , 
5.61, 0.766035, , 
5.64, 0.758083, , 
5.67, 0.751216, , 
5.70, 0.744206, , 
5.73, 0.735857, , 
5.76, 0.729764, , 
5.79, 0.721133, , 
5.82, 0.713669, , 
5.85, 0.706269, , 
5.88, 0.697819, , 
5.91, 0.690724, , 
5.94, 0.682816, , 
5.97, 0.677427, , 
6.00, 0.671150, , 
6.03, 0.663972, , 
6.06, 0.657964, , 
6.09, 0.651132, , 
6.12, 0.645371, , 
6.15, 0.639786, , 
6.18, 0.634523, , 
6.21, 0.629575, , 
6.24, 0.624031, , 
6.27, 0.619330, , 
6.30, 0.614496, , 
6.33, 0.608650, , 
6.37, 0.603483, , 
6.38, 0.600003, 2, 0.586
6.39, 0.598252, , 
6.42, 0.592974, , 
6.45, 0.587779, , 
6.48, 0.581828, , 
6.51, 0.576696, , 
6.54, 0.570767, , 
6.57, 0.566625, , 
6.60, 0.561864, , 
6.63, 0.556319, , 
6.66, 0.551495, , 
6.69, 0.545643, , 
6.72, 0.540234, , 
6.75, 0.534668, , 
6.78, 0.529285, , 
6.81, 0.524162, , 
6.84, 0.518554, , 
6.87, 0.514104, , 
6.90, 0.509869, , 
6.93, 0.505213, , 
6.96, 0.501388, , 
6.99, 0.497600, , 
7.02, 0.493858, , 
7.05, 0.490175, , 
7.08, 0.485966, , 
7.11, 0.482435, , 
7.14, 0.478661, , 
7.17, 0.475898, , 
7.20, 0.473916, , 
7.23, 0.471391, , 
7.26, 0.469319, , 
7.29, 0.466845, , 
7.32, 0.464577, , 
7.35, 0.462278, , 
7.39, 0.459563, , 
7.41, 0.457558, , 
7.44, 0.454516, , 
7.47, 0.451658, , 
7.50, 0.448508, , 
7.53, 0.444445, , 
7.56, 0.440858, , 
7.59, 0.437362, , 
7.62, 0.433975, , 
7.65, 0.430438, , 
7.68, 0.425778, , 
7.71, 0.421455, , 
7.74, 0.416142, , 
7.77, 0.411422, , 
7.80, 0.407422, , 
7.83, 0.401887, , 
7.86, 0.397320, , 
7.89, 0.392035, , 
7.92, 0.387496, , 
7.95, 0.383236, , 
7.98, 0.378691, , 
8.01, 0.375659, , 
8.04, 0.371621, , 
8.07, 0.368398, , 
8.10, 0.365290, , 
8.13, 0.361686, , 
8.16, 0.358692, , 
8.19, 0.355311, , 
8.22, 0.352865, , 
8.25, 0.349807, , 
8.28, 0.346096, , 
8.31, 0.342877, , 
8.34, 0.339343, , 
8.37, 0.336257, , 
8.40, 0.333190, , 
8.43, 0.330243, , 
8.46, 0.327407, , 
8.49, 0.324153, , 
8.52, 0.321409, , 
8.55, 0.318703, , 
8.58, 0.315547, , 
8.61, 0.313152, , 
8.64, 0.309673, , 
8.67, 0.306663, , 
8.70, 0.303691, , 
8.73, 0.300325, , 
8.76, 0.297581, , 
8.79, 0.294838, , 
8.82, 0.293138, , 
8.85, 0.291107, , 
8.88, 0.288776, , 
8.91, 0.286952, , 
8.94, 0.284900, , 
8.97, 0.283022, , 
9.00, 0.281182, , 
9.03, 0.279457, , 
9.06, 0.277887, , 
9.09, 0.276269, , 
9.12, 0.275067, , 
9.15, 0.273897, , 
9.18, 0.272307, , 
9.21, 0.270753, , 
9.24, 0.269158, , 
9.27, 0.267600, , 
9.30, 0.266033, , 
9.33, 0.264070, , 
9.36, 0.262379, , 
9.39, 0.260419, , 
9.43, 0.258773, , 
9.45, 0.257434, , 
9.48, 0.255709, , 
9.51, 0.254342, , 
9.54, 0.252524, , 
9.57, 0.250760, , 
9.58, 0.250456, 3, 0.584
9.60, 0.248940, , 
9.64, 0.246751, , 
9.66, 0.245321, , 
9.69, 0.243481, , 
9.72, 0.242136, , 
9.75, 0.240902, , 
9.78, 0.239367, , 
9.81, 0.238003, , 
9.84, 0.236721, , 
9.87, 0.235434, , 
9.90, 0.234089, , 
9.93, 0.232512, , 
9.96, 0.231202, , 
9.99, 0.229566, , 
10.02, 0.228116, , 
10.05, 0.226930, , 
10.08, 0.225322, , 
10.11, 0.223964, , 
10.14, 0.222223, , 
10.17, 0.220621, , 
10.20, 0.218971, , 
10.23, 0.216983, , 
10.26, 0.215498, , 
10.29, 0.213427, , 
10.32, 0.211701, , 
10.35, 0.210058, , 
10.38, 0.208136, , 
10.41, 0.206575, , 
10.45, 0.204882, , 
10.47, 0.203733, , 
10.50, 0.202331, , 
10.53, 0.200739, , 
10.56, 0.199454, , 
10.59, 0.197941, , 
10.62, 0.196574, , 
10.66, 0.195283, , 
10.68, 0.194221, , 
10.71, 0.193244, , 
10.74, 0.192172, , 
10.77, 0.191395, , 
10.80, 0.190678, , 
10.83, 0.189872, , 
10.86, 0.189269, , 
10.89, 0.188467, , 
10.92, 0.187832, , 
10.95, 0.187179, , 
10.98, 0.186434, , 
11.01, 0.185898, , 
11.04, 0.185282, , 
11.07, 0.184876, , 
11.10, 0.184362, , 
11.13, 0.183757, , 
11.16, 0.183173, , 
11.19, 0.182386, , 
11.22, 0.181641, , 
11.25, 0.180946, , 
11.28, 0.180220, , 
11.31, 0.179512, , 
11.34, 0.178643, , 
11.37, 0.177949, , 
11.40, 0.177257, , 
11.43, 0.176271, , 
11.46, 0.175364, , 
11.49, 0.174682, , 
11.52, 0.173527, , 
11.55, 0.172464, , 
11.58, 0.171262, , 
11.61, 0.170330, , 
11.64, 0.169334, , 
11.68, 0.168509, , 
11.70, 0.167868, , 
11.73, 0.167012, , 
11.76, 0.166314, , 
11.79, 0.165591, , 
11.82, 0.164684, , 
11.85, 0.163973, , 
11.88, 0.163298, , 
11.91, 0.162593, , 
11.94, 0.161918, , 
11.97, 0.161334, , 
12.00, 0.160795, , 
12.03, 0.160034, , 
12.06, 0.159504, , 
12.09, 0.159069, , 
12.12, 0.158372, , 
12.15, 0.157734, , 
12.18, 0.157071, , 
12.21, 0.156503, , 
12.24, 0.155837, , 
12.27, 0.154946, , 
12.30, 0.154334, , 
12.33, 0.153512, , 
12.36, 0.152764, , 
12.39, 0.151913, , 
12.42, 0.150905, , 
12.45, 0.149956, , 
12.48, 0.148773, , 
12.51, 0.148006, , 
12.54, 0.147140, , 
12.57, 0.146137, , 
12.60, 0.145243, , 
12.63, 0.144161, , 
12.66, 0.143356, , 
12.69, 0.142613, , 
12.72, 0.141843, , 
12.75, 0.141154, , 
12.78, 0.140390, , 
12.79, 0.140282, 4, 0.588
12.81, 0.139743, , 
12.84, 0.139172, , 
12.87, 0.138601, , 
12.90, 0.138290, , 
12.93, 0.137919, , 
12.96, 0.137592, , 
12.99, 0.137278, , 
13.02, 0.137002, , 
13.05, 0.136707, , 
13.08, 0.136320, , 
13.11, 0.136082, , 
13.14, 0.135806, , 
13.17, 0.135492, , 
13.20, 0.135204, , 
13.23, 0.134947, , 
13.26, 0.134817, , 
13.29, 0.134703, , 
13.32, 0.134592, , 
13.35, 0.134411, , 
13.38, 0.134290, , 
13.41, 0.134201, , 
13.44, 0.133976, , 
13.47, 0.133830, , 
13.50, 0.133738, , 
13.53, 0.133662, , 
13.56, 0.133519, , 
13.59, 0.133348, , 
13.62, 0.133209, , 
13.65, 0.133088, , 
13.68, 0.132799, , 
13.71, 0.132558, , 
13.74, 0.132298, , 
13.77, 0.131918, , 
13.80, 0.131489, , 
13.83, 0.130912, , 
13.86, 0.130484, , 
13.89, 0.130002, , 
13.92, 0.129409, , 
13.95, 0.128879, , 
13.98, 0.128194, , 
14.01, 0.127509, , 
14.04, 0.126881, , 
14.07, 0.126214, , 
14.10, 0.125640, , 
14.13, 0.125000, , 
14.16, 0.124343, , 
14.19, 0.123702, , 
14.22, 0.122992, , 
14.25, 0.122342, , 
14.28, 0.121634, , 
14.31, 0.121073, , 
14.34, 0.120575, , 
14.37, 0.119810, , 
14.40, 0.119068, , 
14.43, 0.118285, , 
14.46, 0.117596, , 
14.49, 0.116905, , 
14.52, 0.116077, , 
14.55, 0.115547, , 
14.58, 0.114808, , 
14.61, 0.114104, , 
14.64, 0.113419, , 
14.67, 0.112734, , 
14.70, 0.112090, , 
14.74, 0.111287, , 
14.76, 0.110720, , 
14.79, 0.110139, , 
14.82, 0.109444, , 
14.85, 0.108797, , 
14.88, 0.108125, , 
14.91, 0.107529, , 
14.94, 0.106983, , 
14.97, 0.106174, , 
15.00, 0.105476, , 
15.03, 0.104842, , 
15.06, 0.104281, , 
15.09, 0.103627, , 
15.12, 0.102951, , 
15.15, 0.102568, , 
15.18, 0.101797, , 
15.21, 0.101172, , 
15.24, 0.100633, , 
15.27, 0.099989, , 
15.30, 0.099396, , 
15.33, 0.098720, , 
15.36, 0.098232, , 
15.39, 0.097654, , 
15.42, 0.096982, , 
15.45, 0.096379, , 
15.48, 0.095666, , 
15.51, 0.095133, , 
15.54, 0.094603, , 
15.57, 0.094032, , 
15.60, 0.093458, , 
15.63, 0.092833, , 
15.66, 0.092303, , 
15.69, 0.091758, , 
15.72, 0.091158, , 
15.75, 0.090787, , 
15.78, 0.090295, , 
15.81, 0.089820, , 
15.84, 0.089439, , 
15.87, 0.088982, , 
15.90, 0.088529, , 
15.93, 0.087939, , 
15.97, 0.087507, , 
15.99, 0.087263, 5, 0.585
15.99, 0.087200, , 
16.02, 0.086721, , 
16.05, 0.086321, , 
16.08, 0.086036, , 
16.11, 0.085728, , 
16.14, 0.085312, , 
16.18, 0.084878, , 
16.20, 0.084646, , 
16.23, 0.084323, , 
16.26, 0.083942, , 
16.29, 0.083549, , 
16.32, 0.083206, , 
16.35, 0.082987, , 
16.38, 0.082664, , 
16.41, 0.082201, , 
16.44, 0.081899, , 
16.47, 0.081563, , 
16.50, 0.081227, , 
16.53, 0.080783, , 
16.56, 0.080405, , 
16.59, 0.080075, , 
16.62, 0.079584, , 
16.65, 0.079219, , 
16.68, 0.078899, , 
16.71, 0.078610, , 
16.74, 0.078239, , 
16.77, 0.077776, , 
16.80, 0.077586, , 
16.83, 0.077329, , 
16.86, 0.077037, , 
16.89, 0.076729, , 
16.92, 0.076390, , 
16.95, 0.076180, , 
16.99, 0.075860, , 
17.01, 0.075647, , 
17.04, 0.075470, , 
17.07, 0.075222, , 
17.10, 0.074953, , 
17.13, 0.074693, , 
17.16, 0.074499, , 
17.20, 0.074309, , 
17.22, 0.074052, , 
17.25, 0.073811, , 
17.28, 0.073592, , 
17.31, 0.073402, , 
17.34, 0.073170, , 
17.37, 0.072875, , 
17.40, 0.072745, , 
17.43, 0.072561, , 
17.46, 0.072393, , 
17.49, 0.072215, , 
17.52, 0.072117, , 
17.55, 0.071993, , 
17.58, 0.071768, , 
17.61, 0.071629, , 
17.64, 0.071556, , 
17.67, 0.071480, , 
17.70, 0.071315, , 
17.73, 0.071146, , 
17.76, 0.071064, , 
17.79, 0.071042, , 
17.82, 0.070972, , 
17.85, 0.070966, , 
17.88, 0.070988, , 
17.91, 0.071001, , 
17.94, 0.070943, , 
17.97, 0.070928, , 
18.00, 0.070978, , 
18.03, 0.071016, , 
18.06, 0.070982, , 
18.09, 0.070959, , 
18.12, 0.071039, , 
18.15, 0.071118, , 
18.19, 0.071200, , 
18.21, 0.071242, , 
18.24, 0.071343, , 
18.27, 0.071410, , 
18.30, 0.071381, , 
18.33, 0.071381, , 
18.36, 0.071419, , 
18.39, 0.071457, , 
18.42, 0.071556, , 
18.45, 0.071676, , 
18.48, 0.071841, , 
18.51, 0.072022, , 
18.54, 0.072206, , 
18.57, 0.072292, , 
18.60, 0.072434, , 
18.63, 0.072650, , 
18.66, 0.072790, , 
18.69, 0.073021, , 
18.72, 0.073373, , 
18.75, 0.073690, , 
18.78, 0.073954, , 
18.81, 0.074211, , 
18.84, 0.074699, , 
18.87, 0.075124, , 
18.90, 0.075508, , 
18.93, 0.076057, , 
18.96, 0.076590, , 
18.99, 0.077107, , 
19.02, 0.077611, , 
19.05, 0.078134, , 
19.08, 0.078778, , 
19.11, 0.079362, , 
19.14, 0.080044, , 
19.17, 0.080700, , 
19.18, 0.080926, 6, 0.585
19.20, 0.081344, , 
19.23, 0.081861, , 
19.26, 0.082432, , 
19.29, 0.083086, , 
19.32, 0.083866, , 
19.35, 0.084491, , 
19.38, 0.085087, , 
19.41, 0.085560, , 
19.44, 0.086156, , 
19.47, 0.086905, , 
19.50, 0.087425, , 
19.53, 0.088132, , 
19.56, 0.088763, , 
19.59, 0.089290, , 
19.62, 0.089756, , 
19.65, 0.090264, , 
19.68, 0.090866, , 
19.71, 0.091272, , 
19.74, 0.091621, , 
19.77, 0.092145, , 
19.80, 0.092624, , 
19.83, 0.093058, , 
19.86, 0.093458, , 
19.89, 0.093877, , 
19.92, 0.094352, , 
19.95, 0.094632, , 
19.98, 0.094888, , 
20.01, 0.095076, , 
20.04, 0.095241, , 
20.07, 0.095418, , 
20.10, 0.095532, , 
20.13, 0.095627, , 
20.16, 0.095697, , 
20.19, 0.095694, , 
20.22, 0.095697, , 
20.25, 0.095729, , 
20.28, 0.095773, , 
20.31, 0.095742, , 
20.34, 0.095719, , 
20.37, 0.095678, , 
20.40, 0.095574, , 
20.43, 0.095386, , 
20.46, 0.095142, , 
20.49, 0.094920, , 
20.52, 0.094730, , 
20.55, 0.094505, , 
20.58, 0.094200, , 
20.61, 0.094013, , 
20.64, 0.093848, , 
20.67, 0.093544, , 
20.70, 0.093185, , 
20.73, 0.092931, , 
20.76, 0.092662, , 
20.79, 0.092240, , 
20.82, 0.091799, , 
20.85, 0.091567, , 
20.88, 0.091272, , 
20.91, 0.090908, , 
20.94, 0.090498, , 
20.97, 0.090026, , 
21.00, 0.089683, , 
21.03, 0.089274, , 
21.06, 0.088954, , 
21.09, 0.088656, , 
21.12, 0.088227, , 
21.15, 0.087783, , 
21.18, 0.087323, , 
21.21, 0.086933, , 
21.24, 0.086556, , 
21.27, 0.086226, , 
21.30, 0.085858, , 
21.33, 0.085509, , 
21.36, 0.085166, , 
21.39, 0.084710, , 
21.42, 0.084183, , 
21.46, 0.083796, , 
21.48, 0.083460, , 
21.51, 0.083111, , 
21.54, 0.082762, , 
21.57, 0.082378, , 
21.60, 0.082067, , 
21.63, 0.081550, , 
21.66, 0.081138, , 
21.69, 0.080853, , 
21.72, 0.080532, , 
21.75, 0.080177, , 
21.78, 0.079727, , 
21.81, 0.079435, , 
21.84, 0.079165, , 
21.87, 0.078797, , 
21.90, 0.078410, , 
21.93, 0.078020, , 
21.96, 0.077744, , 
21.99, 0.077440, , 
22.02, 0.077024, , 
22.05, 0.076777, , 
22.08, 0.076501, , 
22.11, 0.076145, , 
22.14, 0.075825, , 
22.17, 0.075559, , 
22.20, 0.075343, , 
22.23, 0.075054, , 
22.26, 0.074743, , 
22.29, 0.074531, , 
22.32, 0.074280, , 
22.35, 0.073970, , 
22.38, 0.073665, 7, 0.586
22.39, 0.073646, , 
22.41, 0.073554, , 
22.44, 0.073427, , 
22.48, 0.073186, , 
22.50, 0.073008, , 
22.53, 0.072815, , 
22.56, 0.072675, , 
22.59, 0.072533, , 
22.62, 0.072409, , 
22.65, 0.072330, , 
22.68, 0.072174, , 
22.71, 0.072022, , 
22.74, 0.071952, , 
22.77, 0.071943, , 
22.80, 0.071835, , 
22.83, 0.071644, , 
22.86, 0.071562, , 
22.89, 0.071530, , 
22.92, 0.071495, , 
22.95, 0.071422, , 
22.98, 0.071445, , 
23.01, 0.071587, , 
23.04, 0.071740, , 
23.07, 0.071816, , 
23.10, 0.071870, , 
23.13, 0.072050, , 
23.16, 0.072190, , 
23.19, 0.072323, , 
23.22, 0.072634, , 
23.25, 0.072831, , 
23.28, 0.073151, , 
23.31, 0.073383, , 
23.34, 0.073751, , 
23.37, 0.074290, , 
23.40, 0.074728, , 
23.43, 0.075359, , 
23.46, 0.076063, , 
23.49, 0.076869, , 
23.52, 0.077674, , 
23.55, 0.078582, , 
23.58, 0.079876, , 
23.61, 0.081151, , 
23.64, 0.082527, , 
23.67, 0.084361, , 
23.70, 0.085867, , 
23.73, 0.088250, , 
23.76, 0.090473, , 
23.79, 0.092973, , 
23.82, 0.096367, , 
23.85, 0.099611, , 
23.88, 0.103859, , 
23.91, 0.107167, , 
23.94, 0.111129, , 
23.97, 0.117079, , 
24.00, 0.122284, , 
24.03, 0.128933, , 
24.06, 0.135131, , 
24.09, 0.141808, , 
24.12, 0.148875, , 
24.15, 0.156424, , 
24.18, 0.166022, , 
24.21, 0.174780, , 
24.24, 0.183912, , 
24.27, 0.195134, , 
24.30, 0.205250, , 
24.33, 0.215739, , 
24.36, 0.226270, , 
24.39, 0.235830, , 
24.42, 0.248924, , 
24.45, 0.259442, , 
24.48, 0.271920, , 
24.52, 0.282905, , 
24.54, 0.291218, , 
24.57, 0.305825, , 
24.60, 0.317507, , 
24.63, 0.331239, , 
24.66, 0.343137, , 
24.69, 0.354987, , 
24.72, 0.366780, , 
24.75, 0.378469, , 
24.78, 0.392042, , 
24.81, 0.403407, , 
24.84, 0.414489, , 
24.87, 0.427272, , 
24.90, 0.438384, , 
24.93, 0.449546, , 
24.96, 0.460597, , 
24.99, 0.471445, , 
25.02, 0.483555, , 
25.05, 0.493220, , 
25.08, 0.503659, , 
25.11, 0.512071, , 
25.14, 0.518779, , 
25.17, 0.527534, , 
25.20, 0.534487, , 
25.23, 0.541928, , 
25.26, 0.547733, , 
25.29, 0.553001, , 
25.32, 0.558460, , 
25.35, 0.561994, , 
25.38, 0.566479, , 
25.41, 0.569882, , 
25.44, 0.572813, , 
25.47, 0.575763, , 
25.50, 0.577942, , 
25.54, 0.579903, , 
25.56, 0.581064, , 
25.58, 0.581914, 8, 0.585
25.59, 0.582316, , 
25.62, 0.583468, , 
25.65, 0.584055, , 
25.68, 0.584286, , 
25.71, 0.584229, , 
25.75, 0.584004, , 
25.77, 0.583484, , 
25.80, 0.582637, , 
25.83, 0.581422, , 
25.86, 0.580220, , 
25.89, 0.578802, , 
25.92, 0.576905, , 
25.95, 0.575497, , 
25.98, 0.573289, , 
26.01, 0.571088, , 
26.04, 0.568696, , 
26.07, 0.565762, , 
26.10, 0.563193, , 
26.13, 0.559967, , 
26.16, 0.557496, , 
26.19, 0.554394, , 
26.22, 0.550654, , 
26.25, 0.547295, , 
26.28, 0.543080, , 
26.31, 0.539473, , 
26.34, 0.535883, , 
26.37, 0.532216, , 
26.40, 0.528482, , 
26.43, 0.524010, , 
26.46, 0.520121, , 
26.49, 0.516096, , 
26.52, 0.511440, , 
26.55, 0.507525, , 
26.58, 0.503573, , 
26.61, 0.499504, , 
26.64, 0.495310, , 
26.67, 0.490502, , 
26.70, 0.486340, , 
26.73, 0.481389, , 
26.77, 0.477145, , 
26.79, 0.473662, , 
26.82, 0.468774, , 
26.85, 0.464514, , 
26.88, 0.459436, , 
26.91, 0.455150, , 
26.94, 0.450970, , 
26.97, 0.446738, , 
27.00, 0.442453, , 
27.03, 0.437549, , 
27.06, 0.433407, , 
27.09, 0.429293, , 
27.12, 0.424519, , 
27.15, 0.420503, , 
27.18, 0.416507, , 
27.21, 0.412520, , 
27.24, 0.408666, , 
27.27, 0.404406, , 
27.30, 0.400831, , 
27.33, 0.396650, , 
27.36, 0.393196, , 
27.39, 0.390414, , 
27.42, 0.386602, , 
27.45, 0.383363, , 
27.48, 0.379646, , 
27.51, 0.376547, , 
27.54, 0.373502, , 
27.57, 0.369933, , 
27.60, 0.367383, , 
27.63, 0.363964, , 
27.66, 0.361099, , 
27.69, 0.358194, , 
27.72, 0.354917, , 
27.75, 0.352234, , 
27.79, 0.349040, , 
27.81, 0.346686, , 
27.84, 0.343873, , 
27.87, 0.340713, , 
27.90, 0.338077, , 
27.93, 0.334925, , 
27.96, 0.332244, , 
27.99, 0.330059, , 
28.02, 0.327115, , 
28.05, 0.324537, , 
28.08, 0.321491, , 
28.11, 0.319008, , 
28.14, 0.316556, , 
28.17, 0.313676, , 
28.20, 0.311684, , 
28.23, 0.308997, , 
28.26, 0.306666, , 
28.29, 0.304303, , 
28.32, 0.301603, , 
28.35, 0.299408, , 
28.38, 0.296858, , 
28.41, 0.294980, , 
28.44, 0.292766, , 
28.47, 0.290372, , 
28.50, 0.288335, , 
28.53, 0.285845, , 
28.56, 0.283818, , 
28.59, 0.281811, , 
28.62, 0.279825, , 
28.65, 0.277792, , 
28.68, 0.275451, , 
28.71, 0.273513, , 
28.74, 0.271556, , 
28.77, 0.269237, , 
28.78, 0.268888, 9, 0.585
28.80, 0.267321, , 
28.83, 0.265500, , 
28.86, 0.263594, , 
28.89, 0.261675, , 
28.92, 0.259467, , 
28.95, 0.257593, , 
28.98, 0.255426, , 
29.01, 0.253834, , 
29.04, 0.251988, , 
