Gradient Profiler Text Data File: 4-C4_BY4741_30_012126.csv
Date: 2026-01-21
Time: 16:09:27

User: Karen
Experiment name: 
UV Unit: EM-1
Rotor Manufacturer: Beckman
Rotor Model: SW28.1
Speed: 28 rpm
Gradient: sucrose 10.0% to 50.0% w/v
Time: 4
w2t:  x 10^0
Sample Volume: 18 ml
Number of Tubes: 6
Volume per mm: 0.183 ml/mm

Absorbance Units Full Scale (AUFS): 2.00
Event Mark-triggered gradient; (with distance; auto start and stop)
Delay: No Delay
UV Wavelength: 254 nm
Samples / sec: 10 Hz
EM1 Speed: 0.30 mm/sec
Distance: 3.20 mm
Number: 30
Dead Volume: 0.000000 ml; Distance due to Dead Volume: 0.00 mm
Total Distance: 96.00 mm

Data Columns:
Distance(mm), Absorbance, Fraction Number, Fraction Volume(ml)
0.00, 0.079289, 0, 0.000
0.04, 0.079333, , 
0.06, 0.079387, , 
0.09, 0.079387, , 
0.12, 0.079441, , 
0.15, 0.079552, , 
0.18, 0.079689, , 
0.21, 0.079654, , 
0.24, 0.079565, , 
0.27, 0.079527, , 
0.30, 0.079492, , 
0.33, 0.079409, , 
0.36, 0.079413, , 
0.39, 0.079451, , 
0.42, 0.079428, , 
0.45, 0.079394, , 
0.48, 0.079409, , 
0.51, 0.079511, , 
0.54, 0.080129, , 
0.57, 0.082727, , 
0.60, 0.090819, , 
0.63, 0.109467, , 
0.66, 0.142436, , 
0.69, 0.197856, , 
0.72, 0.255404, , 
0.75, 0.329221, , 
0.78, 0.395566, , 
0.82, 0.463102, , 
0.84, 0.531321, , 
0.87, 0.599756, , 
0.90, 0.679695, , 
0.93, 0.748421, , 
0.96, 0.817446, , 
0.99, 0.898390, , 
1.03, 0.968290, , 
1.05, 1.038625, , 
1.08, 1.108702, , 
1.11, 1.176115, , 
1.14, 1.245942, , 
1.17, 1.292684, , 
1.20, 1.329697, , 
1.23, 1.346562, , 
1.26, 1.361131, , 
1.29, 1.368915, , 
1.32, 1.374383, , 
1.35, 1.379363, , 
1.38, 1.382545, , 
1.41, 1.387059, , 
1.44, 1.391030, , 
1.47, 1.395613, , 
1.50, 1.399426, , 
1.53, 1.403077, , 
1.56, 1.406725, , 
1.59, 1.409056, , 
1.62, 1.411647, , 
1.65, 1.414829, , 
1.68, 1.417810, , 
1.71, 1.421382, , 
1.74, 1.424519, , 
1.77, 1.427647, , 
1.80, 1.430625, , 
1.83, 1.433378, , 
1.86, 1.436335, , 
1.89, 1.438805, , 
1.92, 1.441070, , 
1.95, 1.443062, , 
1.98, 1.444214, , 
2.01, 1.445172, , 
2.04, 1.446082, , 
2.07, 1.446980, , 
2.10, 1.448185, , 
2.13, 1.449273, , 
2.16, 1.450183, , 
2.19, 1.450488, , 
2.22, 1.450615, , 
2.25, 1.450681, , 
2.28, 1.450818, , 
2.31, 1.451014, , 
2.34, 1.451173, , 
2.37, 1.451293, , 
2.40, 1.451306, , 
2.43, 1.451293, , 
2.46, 1.451601, , 
2.49, 1.452223, , 
2.52, 1.452851, , 
2.55, 1.453580, , 
2.58, 1.453945, , 
2.61, 1.454196, , 
2.64, 1.454170, , 
2.67, 1.453961, , 
2.70, 1.453755, , 
2.73, 1.453460, , 
2.76, 1.453079, , 
2.79, 1.452372, , 
2.82, 1.451132, , 
2.85, 1.449593, , 
2.88, 1.447344, , 
2.91, 1.445264, , 
2.94, 1.443275, , 
2.97, 1.441498, , 
3.00, 1.439900, , 
3.03, 1.438399, , 
3.06, 1.436652, , 
3.09, 1.435040, , 
3.12, 1.432652, , 
3.15, 1.430292, , 
3.18, 1.428233, , 
3.18, 1.427818, 1, 0.583
3.21, 1.425420, , 
3.24, 1.423155, , 
3.27, 1.420602, , 
3.30, 1.418464, , 
3.33, 1.416386, , 
3.36, 1.413934, , 
3.39, 1.411961, , 
3.42, 1.410061, , 
3.45, 1.408130, , 
3.48, 1.405395, , 
3.51, 1.403089, , 
3.54, 1.399543, , 
3.57, 1.396197, , 
3.60, 1.392575, , 
3.63, 1.388226, , 
3.66, 1.384442, , 
3.70, 1.379731, , 
3.72, 1.376169, , 
3.75, 1.371795, , 
3.78, 1.366552, , 
3.81, 1.361984, , 
3.84, 1.356427, , 
3.87, 1.351517, , 
3.90, 1.346496, , 
3.93, 1.341367, , 
3.96, 1.336114, , 
3.99, 1.330002, , 
4.02, 1.324822, , 
4.05, 1.319601, , 
4.08, 1.313485, , 
4.11, 1.309115, , 
4.14, 1.302967, , 
4.17, 1.297629, , 
4.20, 1.291425, , 
4.23, 1.286153, , 
4.26, 1.280897, , 
4.29, 1.275444, , 
4.32, 1.268939, , 
4.35, 1.263369, , 
4.38, 1.257891, , 
4.42, 1.251423, , 
4.44, 1.246713, , 
4.47, 1.239979, , 
4.50, 1.233990, , 
4.53, 1.227758, , 
4.56, 1.220240, , 
4.59, 1.213785, , 
4.62, 1.207365, , 
4.65, 1.200958, , 
4.68, 1.194500, , 
4.71, 1.186922, , 
4.74, 1.180280, , 
4.77, 1.172445, , 
4.80, 1.165810, , 
4.83, 1.160395, , 
4.86, 1.152668, , 
4.89, 1.145820, , 
4.92, 1.137618, , 
4.95, 1.130512, , 
4.98, 1.123483, , 
5.01, 1.115360, , 
5.04, 1.109657, , 
5.07, 1.101844, , 
5.10, 1.095145, , 
5.13, 1.088196, , 
5.16, 1.079911, , 
5.19, 1.072707, , 
5.22, 1.064156, , 
5.25, 1.057983, , 
5.28, 1.050557, , 
5.31, 1.041793, , 
5.34, 1.034282, , 
5.37, 1.025559, , 
5.40, 1.018229, , 
5.43, 1.010975, , 
5.46, 1.003762, , 
5.49, 0.996473, , 
5.52, 0.987861, , 
5.55, 0.980442, , 
5.58, 0.972972, , 
5.61, 0.964268, , 
5.65, 0.956985, , 
5.67, 0.949871, , 
5.70, 0.942921, , 
5.73, 0.936155, , 
5.76, 0.928704, , 
5.79, 0.922465, , 
5.82, 0.915268, , 
5.85, 0.910158, , 
5.88, 0.904071, , 
5.91, 0.896979, , 
5.94, 0.890901, , 
5.97, 0.884840, , 
6.00, 0.877941, , 
6.03, 0.872298, , 
6.06, 0.866817, , 
6.09, 0.861510, , 
6.12, 0.855699, , 
6.15, 0.850986, , 
6.18, 0.846405, , 
6.21, 0.841470, , 
6.24, 0.837832, , 
6.27, 0.834609, , 
6.30, 0.831532, , 
6.33, 0.827735, , 
6.36, 0.824719, , 
6.38, 0.822010, 2, 0.585
6.39, 0.819831, , 
6.42, 0.815044, , 
6.45, 0.810007, , 
6.48, 0.803965, , 
6.51, 0.798700, , 
6.54, 0.793345, , 
6.57, 0.787106, , 
6.60, 0.782643, , 
6.63, 0.776119, , 
6.66, 0.770197, , 
6.69, 0.764100, , 
6.72, 0.756671, , 
6.75, 0.749744, , 
6.79, 0.740875, , 
6.81, 0.734309, , 
6.84, 0.726478, , 
6.87, 0.717749, , 
6.90, 0.710843, , 
6.93, 0.703551, , 
6.96, 0.697927, , 
6.99, 0.692551, , 
7.02, 0.687317, , 
7.05, 0.682175, , 
7.08, 0.676256, , 
7.11, 0.671232, , 
7.14, 0.666255, , 
7.17, 0.660777, , 
7.20, 0.656372, , 
7.23, 0.652156, , 
7.27, 0.647386, , 
7.29, 0.644109, , 
7.32, 0.639519, , 
7.35, 0.635386, , 
7.38, 0.631075, , 
7.41, 0.625873, , 
7.44, 0.621309, , 
7.47, 0.616589, , 
7.50, 0.611777, , 
7.53, 0.607010, , 
7.56, 0.601392, , 
7.59, 0.596374, , 
7.62, 0.590598, , 
7.65, 0.585866, , 
7.68, 0.582009, , 
7.71, 0.576616, , 
7.74, 0.571855, , 
7.77, 0.566108, , 
7.80, 0.561049, , 
7.83, 0.556053, , 
7.86, 0.550353, , 
7.89, 0.546505, , 
7.92, 0.541341, , 
7.95, 0.536961, , 
7.98, 0.532527, , 
8.01, 0.527455, , 
8.04, 0.523239, , 
8.07, 0.518472, , 
8.10, 0.515221, , 
8.13, 0.511462, , 
8.16, 0.507145, , 
8.19, 0.503316, , 
8.22, 0.498799, , 
8.25, 0.494949, , 
8.28, 0.491019, , 
8.31, 0.487035, , 
8.34, 0.482987, , 
8.37, 0.478331, , 
8.40, 0.474388, , 
8.43, 0.470388, , 
8.46, 0.465799, , 
8.49, 0.462544, , 
8.52, 0.458012, , 
8.55, 0.454189, , 
8.58, 0.450389, , 
8.61, 0.446133, , 
8.64, 0.442418, , 
8.67, 0.437870, , 
8.70, 0.434527, , 
8.73, 0.430473, , 
8.76, 0.425670, , 
8.79, 0.421680, , 
8.82, 0.417230, , 
8.85, 0.413754, , 
8.88, 0.410458, , 
8.91, 0.407305, , 
8.94, 0.404307, , 
8.97, 0.401056, , 
9.00, 0.398293, , 
9.03, 0.395553, , 
9.06, 0.392470, , 
9.09, 0.389824, , 
9.12, 0.387303, , 
9.15, 0.385019, , 
9.18, 0.382519, , 
9.21, 0.380420, , 
9.24, 0.378136, , 
9.27, 0.375684, , 
9.30, 0.373203, , 
9.33, 0.370346, , 
9.36, 0.367894, , 
9.39, 0.364937, , 
9.42, 0.362825, , 
9.45, 0.360256, , 
9.48, 0.357299, , 
9.51, 0.354790, , 
9.54, 0.351929, , 
9.57, 0.349392, , 
9.58, 0.348945, 3, 0.585
9.60, 0.346585, , 
9.63, 0.343454, , 
9.66, 0.340079, , 
9.69, 0.335895, , 
9.72, 0.332235, , 
9.75, 0.328876, , 
9.78, 0.325358, , 
9.82, 0.322678, , 
9.84, 0.320229, , 
9.87, 0.317945, , 
9.90, 0.315658, , 
9.93, 0.312864, , 
9.96, 0.310434, , 
9.99, 0.307662, , 
10.02, 0.305768, , 
10.05, 0.303361, , 
10.08, 0.301772, , 
10.11, 0.300684, , 
10.14, 0.299967, , 
10.17, 0.299367, , 
10.20, 0.298818, , 
10.23, 0.298216, , 
10.26, 0.297350, , 
10.29, 0.296313, , 
10.32, 0.295126, , 
10.35, 0.293956, , 
10.38, 0.292760, , 
10.41, 0.291260, , 
10.44, 0.289912, , 
10.47, 0.288652, , 
10.50, 0.287225, , 
10.53, 0.285937, , 
10.56, 0.284459, , 
10.59, 0.282826, , 
10.62, 0.280973, , 
10.65, 0.278493, , 
10.68, 0.276304, , 
10.71, 0.273995, , 
10.74, 0.272257, , 
10.77, 0.270997, , 
10.80, 0.269402, , 
10.83, 0.268124, , 
10.86, 0.266604, , 
10.89, 0.265263, , 
10.92, 0.263965, , 
10.96, 0.262557, , 
10.98, 0.261612, , 
11.01, 0.260324, , 
11.04, 0.259264, , 
11.07, 0.258218, , 
11.10, 0.256901, , 
11.13, 0.255734, , 
11.16, 0.254529, , 
11.19, 0.253174, , 
11.22, 0.251642, , 
11.25, 0.249774, , 
11.28, 0.248232, , 
11.31, 0.246399, , 
11.34, 0.244734, , 
11.37, 0.243392, , 
11.40, 0.241568, , 
11.43, 0.239985, , 
11.46, 0.238101, , 
11.49, 0.236471, , 
11.52, 0.234847, , 
11.55, 0.232861, , 
11.58, 0.231415, , 
11.61, 0.229436, , 
11.64, 0.227818, , 
11.67, 0.226283, , 
11.70, 0.224551, , 
11.73, 0.223155, , 
11.77, 0.221595, , 
11.79, 0.220507, , 
11.82, 0.219162, , 
11.85, 0.217687, , 
11.88, 0.216431, , 
11.91, 0.214864, , 
11.94, 0.213582, , 
11.97, 0.212383, , 
12.00, 0.211273, , 
12.03, 0.210217, , 
12.06, 0.208986, , 
12.09, 0.207927, , 
12.12, 0.206791, , 
12.15, 0.205338, , 
12.18, 0.204241, , 
12.21, 0.202737, , 
12.24, 0.201465, , 
12.27, 0.200121, , 
12.30, 0.198620, , 
12.33, 0.197415, , 
12.37, 0.196013, , 
12.39, 0.195045, , 
12.42, 0.193938, , 
12.45, 0.192698, , 
12.48, 0.191601, , 
12.51, 0.190211, , 
12.54, 0.189085, , 
12.57, 0.188102, , 
12.60, 0.187246, , 
12.63, 0.186437, , 
12.66, 0.185561, , 
12.69, 0.184908, , 
12.72, 0.184153, , 
12.75, 0.183462, , 
12.78, 0.182856, , 
12.79, 0.182646, 4, 0.588
12.81, 0.182139, , 
12.84, 0.181508, , 
12.87, 0.180708, , 
12.90, 0.180106, , 
12.93, 0.179576, , 
12.96, 0.179091, , 
13.00, 0.178440, , 
13.02, 0.177961, , 
13.05, 0.177368, , 
13.08, 0.176613, , 
13.11, 0.175509, , 
13.14, 0.174529, , 
13.17, 0.173549, , 
13.20, 0.172588, , 
13.23, 0.171608, , 
13.26, 0.170558, , 
13.29, 0.169613, , 
13.32, 0.168449, , 
13.35, 0.167589, , 
13.38, 0.166641, , 
13.41, 0.165600, , 
13.44, 0.164665, , 
13.47, 0.163437, , 
13.50, 0.162394, , 
13.53, 0.161366, , 
13.56, 0.160405, , 
13.59, 0.159368, , 
13.62, 0.158403, , 
13.65, 0.157613, , 
13.68, 0.156754, , 
13.71, 0.155748, , 
13.74, 0.154987, , 
13.77, 0.154270, , 
13.80, 0.153547, , 
13.83, 0.152884, , 
13.86, 0.152221, , 
13.89, 0.151644, , 
13.92, 0.150933, , 
13.95, 0.150397, , 
13.98, 0.150007, , 
14.01, 0.149452, , 
14.04, 0.148875, , 
14.07, 0.148161, , 
14.10, 0.147562, , 
14.13, 0.146975, , 
14.17, 0.146255, , 
14.19, 0.145760, , 
14.22, 0.145059, , 
14.25, 0.144517, , 
14.28, 0.143920, , 
14.31, 0.143248, , 
14.34, 0.142693, , 
14.37, 0.142017, , 
14.40, 0.141230, , 
14.43, 0.140450, , 
14.46, 0.139540, , 
14.49, 0.138648, , 
14.52, 0.137602, , 
14.55, 0.136796, , 
14.58, 0.136216, , 
14.61, 0.135343, , 
14.64, 0.134547, , 
14.67, 0.133789, , 
14.70, 0.133215, , 
14.73, 0.132568, , 
14.76, 0.131860, , 
14.79, 0.131397, , 
14.82, 0.130715, , 
14.85, 0.130065, , 
14.88, 0.129501, , 
14.91, 0.128965, , 
14.94, 0.128486, , 
14.97, 0.127775, , 
15.00, 0.127353, , 
15.03, 0.126674, , 
15.06, 0.126091, , 
15.09, 0.125456, , 
15.12, 0.124793, , 
15.15, 0.124200, , 
15.18, 0.123534, , 
15.21, 0.122900, , 
15.24, 0.122183, , 
15.27, 0.121587, , 
15.30, 0.120949, , 
15.33, 0.120172, , 
15.37, 0.119471, , 
15.39, 0.118859, , 
15.42, 0.117952, , 
15.45, 0.117206, , 
15.48, 0.116458, , 
15.51, 0.115880, , 
15.54, 0.115252, , 
15.57, 0.114637, , 
15.60, 0.114085, , 
15.63, 0.113463, , 
15.66, 0.112823, , 
15.69, 0.112204, , 
15.72, 0.111525, , 
15.75, 0.110986, , 
15.78, 0.110488, , 
15.81, 0.109990, , 
15.84, 0.109663, , 
15.87, 0.109292, , 
15.90, 0.108893, , 
15.93, 0.108423, , 
15.96, 0.107909, , 
15.98, 0.107465, 5, 0.584
15.99, 0.107284, , 
16.02, 0.106777, , 
16.05, 0.106276, , 
16.08, 0.105803, , 
16.11, 0.105311, , 
16.14, 0.104826, , 
16.17, 0.104261, , 
16.20, 0.103827, , 
16.23, 0.103459, , 
16.26, 0.102863, , 
16.29, 0.102266, , 
16.32, 0.101597, , 
16.35, 0.100902, , 
16.38, 0.100144, , 
16.41, 0.099412, , 
16.44, 0.098955, , 
16.47, 0.098324, , 
16.50, 0.097762, , 
16.53, 0.097172, , 
16.56, 0.096551, , 
16.59, 0.095967, , 
16.63, 0.095244, , 
16.65, 0.094711, , 
16.68, 0.094216, , 
16.71, 0.093702, , 
16.74, 0.093172, , 
16.77, 0.092605, , 
16.80, 0.092164, , 
16.84, 0.091694, , 
16.86, 0.091218, , 
16.89, 0.090854, , 
16.92, 0.090438, , 
16.95, 0.089953, , 
16.98, 0.089407, , 
17.01, 0.088846, , 
17.04, 0.088503, , 
17.07, 0.088002, , 
17.10, 0.087523, , 
17.13, 0.087085, , 
17.16, 0.086660, , 
17.19, 0.086264, , 
17.22, 0.085782, , 
17.25, 0.085395, , 
17.28, 0.084951, , 
17.31, 0.084437, , 
17.34, 0.083952, , 
17.37, 0.083454, , 
17.40, 0.083003, , 
17.43, 0.082515, , 
17.46, 0.082061, , 
17.49, 0.081693, , 
17.52, 0.081370, , 
17.55, 0.081005, , 
17.58, 0.080586, , 
17.61, 0.080202, , 
17.64, 0.079901, , 
17.67, 0.079587, , 
17.70, 0.079263, , 
17.73, 0.079041, , 
17.76, 0.078810, , 
17.79, 0.078582, , 
17.82, 0.078385, , 
17.86, 0.078252, , 
17.88, 0.078068, , 
17.91, 0.077808, , 
17.94, 0.077658, , 
17.97, 0.077497, , 
18.00, 0.077300, , 
18.03, 0.077053, , 
18.06, 0.076862, , 
18.09, 0.076751, , 
18.12, 0.076612, , 
18.15, 0.076380, , 
18.18, 0.076215, , 
18.21, 0.076069, , 
18.24, 0.075854, , 
18.27, 0.075549, , 
18.30, 0.075368, , 
18.33, 0.075289, , 
18.36, 0.075077, , 
18.39, 0.074839, , 
18.42, 0.074690, , 
18.45, 0.074591, , 
18.48, 0.074347, , 
18.51, 0.074163, , 
18.54, 0.074122, , 
18.57, 0.074106, , 
18.60, 0.074087, , 
18.63, 0.074074, , 
18.66, 0.074077, , 
18.69, 0.074046, , 
18.72, 0.074023, , 
18.75, 0.074011, , 
18.78, 0.074062, , 
18.81, 0.074062, , 
18.84, 0.073966, , 
18.87, 0.074068, , 
18.90, 0.074230, , 
18.93, 0.074309, , 
18.96, 0.074366, , 
18.99, 0.074410, , 
19.02, 0.074626, , 
19.05, 0.074785, , 
19.08, 0.074842, , 
19.11, 0.074991, , 
19.14, 0.075184, , 
19.17, 0.075410, , 
19.18, 0.075514, 6, 0.586
19.20, 0.075606, , 
19.23, 0.075765, , 
19.26, 0.076044, , 
19.29, 0.076361, , 
19.32, 0.076539, , 
19.35, 0.076704, , 
19.38, 0.076945, , 
19.41, 0.077202, , 
19.44, 0.077494, , 
19.47, 0.077766, , 
19.50, 0.078122, , 
19.54, 0.078467, , 
19.56, 0.078794, , 
19.59, 0.079333, , 
19.62, 0.079781, , 
19.65, 0.080228, , 
19.68, 0.080618, , 
19.71, 0.081068, , 
19.74, 0.081512, , 
19.77, 0.081915, , 
19.80, 0.082385, , 
19.83, 0.082829, , 
19.86, 0.083289, , 
19.89, 0.083780, , 
19.92, 0.084205, , 
19.95, 0.084665, , 
19.98, 0.085173, , 
20.01, 0.085658, , 
20.04, 0.086286, , 
20.07, 0.086841, , 
20.10, 0.087457, , 
20.13, 0.087897, , 
20.16, 0.088256, , 
20.19, 0.088798, , 
20.22, 0.089220, , 
20.25, 0.089642, , 
20.28, 0.089943, , 
20.31, 0.090289, , 
20.34, 0.090746, , 
20.37, 0.091047, , 
20.40, 0.091494, , 
20.43, 0.091935, , 
20.46, 0.092395, , 
20.49, 0.092738, , 
20.52, 0.093087, , 
20.55, 0.093455, , 
20.58, 0.093724, , 
20.61, 0.093978, , 
20.64, 0.094260, , 
20.67, 0.094517, , 
20.70, 0.094755, , 
20.73, 0.094946, , 
20.76, 0.095202, , 
20.79, 0.095491, , 
20.82, 0.095650, , 
20.85, 0.095726, , 
20.88, 0.095837, , 
20.91, 0.096043, , 
20.94, 0.096157, , 
20.97, 0.096211, , 
21.00, 0.096275, , 
21.03, 0.096297, , 
21.06, 0.096249, , 
21.09, 0.096227, , 
21.12, 0.096249, , 
21.15, 0.096306, , 
21.18, 0.096284, , 
21.21, 0.096275, , 
21.24, 0.096217, , 
21.27, 0.096176, , 
21.30, 0.096053, , 
21.33, 0.095872, , 
21.36, 0.095818, , 
21.39, 0.095675, , 
21.42, 0.095551, , 
21.45, 0.095396, , 
21.48, 0.095244, , 
21.51, 0.095082, , 
21.54, 0.094873, , 
21.57, 0.094720, , 
21.60, 0.094597, , 
21.63, 0.094448, , 
21.66, 0.094200, , 
21.69, 0.093959, , 
21.72, 0.093772, , 
21.75, 0.093566, , 
21.78, 0.093271, , 
21.81, 0.092925, , 
21.84, 0.092712, , 
21.87, 0.092395, , 
21.90, 0.092129, , 
21.93, 0.091945, , 
21.96, 0.091704, , 
21.99, 0.091475, , 
22.02, 0.091196, , 
22.05, 0.090968, , 
22.08, 0.090736, , 
22.11, 0.090394, , 
22.14, 0.090092, , 
22.17, 0.089877, , 
22.20, 0.089544, , 
22.23, 0.089144, , 
22.26, 0.088649, , 
22.29, 0.088326, , 
22.32, 0.088028, , 
22.35, 0.087615, , 
22.38, 0.087254, , 
22.39, 0.087187, 7, 0.586
22.41, 0.086806, , 
22.44, 0.086426, , 
22.47, 0.085963, , 
22.50, 0.085423, , 
22.53, 0.085046, , 
22.57, 0.084592, , 
22.59, 0.084189, , 
22.62, 0.083707, , 
22.65, 0.083292, , 
22.68, 0.083000, , 
22.71, 0.082588, , 
22.74, 0.082264, , 
22.78, 0.082042, , 
22.80, 0.081814, , 
22.83, 0.081531, , 
22.86, 0.081227, , 
22.89, 0.081040, , 
22.92, 0.080843, , 
22.95, 0.080564, , 
22.98, 0.080478, , 
23.01, 0.080304, , 
23.04, 0.080133, , 
23.07, 0.079974, , 
23.10, 0.079866, , 
23.13, 0.079809, , 
23.16, 0.079660, , 
23.19, 0.079470, , 
23.22, 0.079362, , 
23.25, 0.079251, , 
23.28, 0.079070, , 
23.31, 0.078927, , 
23.34, 0.078854, , 
23.37, 0.078791, , 
23.40, 0.078677, , 
23.43, 0.078467, , 
23.46, 0.078398, , 
23.49, 0.078350, , 
23.52, 0.078242, , 
23.55, 0.077976, , 
23.58, 0.077890, , 
23.61, 0.077890, , 
23.64, 0.077874, , 
23.67, 0.077820, , 
23.70, 0.077925, , 
23.73, 0.078125, , 
23.76, 0.078344, , 
23.79, 0.078483, , 
23.82, 0.078712, , 
23.85, 0.079060, , 
23.88, 0.079394, , 
23.91, 0.079945, , 
23.94, 0.080548, , 
23.97, 0.081214, , 
24.00, 0.081915, , 
24.03, 0.082730, , 
24.06, 0.083980, , 
24.09, 0.085059, , 
24.12, 0.086419, , 
24.15, 0.087828, , 
24.18, 0.089480, , 
24.21, 0.091621, , 
24.24, 0.093636, , 
24.27, 0.096205, , 
24.30, 0.098777, , 
24.33, 0.101657, , 
24.36, 0.104848, , 
24.40, 0.108956, , 
24.42, 0.112201, , 
24.45, 0.117108, , 
24.48, 0.121634, , 
24.51, 0.127429, , 
24.54, 0.132799, , 
24.57, 0.138512, , 
24.60, 0.144561, , 
24.63, 0.151032, , 
24.66, 0.159152, , 
24.69, 0.166501, , 
24.72, 0.174206, , 
24.75, 0.182393, , 
24.78, 0.191004, , 
24.81, 0.201551, , 
24.84, 0.210984, , 
24.87, 0.222311, , 
24.90, 0.232300, , 
24.93, 0.242529, , 
24.96, 0.254700, , 
24.99, 0.263670, , 
25.02, 0.276450, , 
25.05, 0.287447, , 
25.08, 0.298447, , 
25.11, 0.311417, , 
25.14, 0.322602, , 
25.17, 0.335613, , 
25.20, 0.344954, , 
25.23, 0.356037, , 
25.26, 0.368747, , 
25.29, 0.379386, , 
25.32, 0.391461, , 
25.35, 0.401605, , 
25.38, 0.411460, , 
25.41, 0.420919, , 
25.44, 0.430083, , 
25.47, 0.440353, , 
25.50, 0.448657, , 
25.53, 0.456540, , 
25.56, 0.465224, , 
25.58, 0.468840, 8, 0.584
25.60, 0.472339, , 
25.62, 0.479003, , 
25.65, 0.485255, , 
25.68, 0.491057, , 
25.71, 0.497321, , 
25.74, 0.502209, , 
25.77, 0.507268, , 
25.80, 0.510513, , 
25.83, 0.514050, , 
25.86, 0.517498, , 
25.89, 0.520407, , 
25.92, 0.523214, , 
25.95, 0.525371, , 
25.98, 0.527191, , 
26.01, 0.528492, , 
26.04, 0.529748, , 
26.07, 0.530763, , 
26.10, 0.531420, , 
26.13, 0.531794, , 
26.16, 0.532019, , 
26.19, 0.531899, , 
26.22, 0.531635, , 
26.25, 0.531068, , 
26.28, 0.530389, , 
26.31, 0.529415, , 
26.34, 0.528346, , 
26.37, 0.527103, , 
26.40, 0.525529, , 
26.43, 0.524305, , 
26.46, 0.522326, , 
26.49, 0.520432, , 
26.52, 0.518110, , 
26.55, 0.515909, , 
26.58, 0.513527, , 
26.62, 0.510688, , 
26.64, 0.508607, , 
26.67, 0.506057, , 
26.70, 0.503012, , 
26.73, 0.500246, , 
26.76, 0.497385, , 
26.79, 0.494003, , 
26.82, 0.490920, , 
26.85, 0.487774, , 
26.88, 0.484142, , 
26.91, 0.481547, , 
26.94, 0.477814, , 
26.97, 0.474572, , 
27.00, 0.471375, , 
27.03, 0.467588, , 
27.06, 0.464305, , 
27.09, 0.460441, , 
27.12, 0.457742, , 
27.15, 0.454510, , 
27.18, 0.450662, , 
27.21, 0.447427, , 
27.24, 0.443624, , 
27.27, 0.440360, , 
27.30, 0.437058, , 
27.33, 0.433784, , 
27.36, 0.430549, , 
27.39, 0.426689, , 
27.42, 0.423384, , 
27.45, 0.420224, , 
27.48, 0.416523, , 
27.52, 0.413256, , 
27.54, 0.409995, , 
27.57, 0.406737, , 
27.60, 0.403502, , 
27.63, 0.399648, , 
27.66, 0.396374, , 
27.69, 0.393168, , 
27.72, 0.389437, , 
27.75, 0.386205, , 
27.78, 0.382973, , 
27.81, 0.379290, , 
27.84, 0.376696, , 
27.87, 0.373000, , 
27.90, 0.369794, , 
27.93, 0.366571, , 
27.96, 0.362974, , 
27.99, 0.359729, , 
28.02, 0.356541, , 
28.05, 0.352900, , 
28.08, 0.350277, , 
28.11, 0.346673, , 
28.14, 0.343660, , 
28.17, 0.340755, , 
28.20, 0.337319, , 
28.23, 0.334236, , 
28.27, 0.330674, , 
28.29, 0.328213, , 
28.32, 0.325374, , 
28.35, 0.322100, , 
28.38, 0.319243, , 
28.41, 0.315969, , 
28.44, 0.313162, , 
28.47, 0.310802, , 
28.50, 0.307611, , 
28.53, 0.304985, , 
28.56, 0.301876, , 
28.59, 0.299088, , 
28.62, 0.296440, , 
28.65, 0.293458, , 
28.68, 0.291333, , 
28.71, 0.288259, , 
28.74, 0.285588, , 
28.77, 0.283060, , 
28.78, 0.282229, 9, 0.586
28.80, 0.280161, , 
28.83, 0.277665, , 
28.86, 0.274683, , 
28.89, 0.272583, , 
28.92, 0.270103, , 
28.95, 0.267159, , 
28.98, 0.264638, , 
29.01, 0.261773, , 
29.04, 0.259356, , 
