Gradient Profiler Text Data File: 20231116_BY4742_40C.csv
Date: 2023-11-16
Time: 17:45:00

User: jared
Experiment name: 20231116_BY4742_30
UV Unit: EM-1
Rotor Manufacturer: Beckman
Rotor Model: SW28.1
Speed: 28 rpm
Gradient: sucrose 10.0% to 50.0% w/v
Time: 4
w2t:  x 10^0
Sample Volume: 18 ml
Number of Tubes: 6
Volume per mm: 0.183 ml/mm

Absorbance Units Full Scale (AUFS): 2.00
Event Mark-triggered gradient; (with distance; auto start and stop)
Delay: No Delay
UV Wavelength: 254 nm
Samples / sec: 10 Hz
EM1 Speed: 0.30 mm/sec
Distance: 3.20 mm
Number: 30
Dead Volume: 0.000000 ml; Distance due to Dead Volume: 0.00 mm
Total Distance: 96.00 mm

Data Columns:
Distance(mm), Absorbance, Fraction Number, Fraction Volume(ml)
0.00, 0.082112, 0, 0.000
0.03, 0.082115, , 
0.06, 0.082121, , 
0.09, 0.082131, , 
0.12, 0.082131, , 
0.15, 0.082077, , 
0.18, 0.082077, , 
0.21, 0.082172, , 
0.24, 0.082337, , 
0.27, 0.082454, , 
0.30, 0.082600, , 
0.33, 0.082813, , 
0.36, 0.083003, , 
0.39, 0.083213, , 
0.42, 0.083368, , 
0.45, 0.083492, , 
0.48, 0.083701, , 
0.51, 0.083879, , 
0.54, 0.084313, , 
0.57, 0.085966, , 
0.60, 0.089908, , 
0.63, 0.104639, , 
0.66, 0.133640, , 
0.69, 0.192800, , 
0.72, 0.262329, , 
0.75, 0.343489, , 
0.79, 0.446986, , 
0.81, 0.524311, , 
0.84, 0.635002, , 
0.87, 0.731267, , 
0.90, 0.844582, , 
0.93, 0.942138, , 
0.96, 1.023793, , 
0.99, 1.138509, , 
1.02, 1.237042, , 
1.05, 1.352193, , 
1.08, 1.450497, , 
1.11, 1.547482, , 
1.14, 1.654903, , 
1.17, 1.723246, , 
1.20, 1.798814, , 
1.23, 1.842720, , 
1.26, 1.870832, , 
1.29, 1.890299, , 
1.32, 1.900071, , 
1.35, 1.907294, , 
1.38, 1.910957, , 
1.41, 1.914380, , 
1.44, 1.917514, , 
1.47, 1.919769, , 
1.50, 1.922246, , 
1.53, 1.924413, , 
1.57, 1.926605, , 
1.59, 1.928765, , 
1.62, 1.930839, , 
1.65, 1.933117, , 
1.68, 1.934928, , 
1.71, 1.936729, , 
1.74, 1.938759, , 
1.77, 1.940203, , 
1.80, 1.942046, , 
1.83, 1.943416, , 
1.86, 1.944681, , 
1.89, 1.945855, , 
1.92, 1.946534, , 
1.95, 1.946670, , 
1.98, 1.946293, , 
2.01, 1.945519, , 
2.04, 1.944402, , 
2.07, 1.943527, , 
2.10, 1.942766, , 
2.13, 1.942379, , 
2.16, 1.942068, , 
2.19, 1.941560, , 
2.22, 1.940821, , 
2.25, 1.939597, , 
2.28, 1.938420, , 
2.31, 1.937383, , 
2.34, 1.936574, , 
2.37, 1.936114, , 
2.40, 1.935578, , 
2.43, 1.934947, , 
2.46, 1.934357, , 
2.49, 1.934173, , 
2.52, 1.934309, , 
2.55, 1.934712, , 
2.58, 1.934814, , 
2.61, 1.934544, , 
2.64, 1.933497, , 
2.67, 1.931959, , 
2.70, 1.929853, , 
2.73, 1.928099, , 
2.76, 1.926322, , 
2.80, 1.923893, , 
2.82, 1.921834, , 
2.85, 1.918272, , 
2.88, 1.914748, , 
2.91, 1.911059, , 
2.94, 1.906878, , 
2.97, 1.903354, , 
3.00, 1.899691, , 
3.03, 1.895707, , 
3.06, 1.891301, , 
3.09, 1.885595, , 
3.12, 1.880361, , 
3.15, 1.873976, , 
3.18, 1.868390, , 
3.19, 1.867429, 1, 0.583
3.22, 1.862538, , 
3.24, 1.856387, , 
3.27, 1.849837, , 
3.30, 1.841768, , 
3.33, 1.834666, , 
3.36, 1.827434, , 
3.39, 1.819980, , 
3.42, 1.812202, , 
3.45, 1.802633, , 
3.48, 1.794043, , 
3.51, 1.785171, , 
3.54, 1.774510, , 
3.57, 1.765207, , 
3.60, 1.755691, , 
3.63, 1.746115, , 
3.66, 1.734848, , 
3.69, 1.725012, , 
3.72, 1.715062, , 
3.75, 1.703205, , 
3.78, 1.692868, , 
3.81, 1.684224, , 
3.84, 1.671987, , 
3.87, 1.661374, , 
3.90, 1.649010, , 
3.93, 1.638358, , 
3.96, 1.627428, , 
3.99, 1.616202, , 
4.02, 1.604729, , 
4.05, 1.591090, , 
4.08, 1.579281, , 
4.11, 1.567320, , 
4.14, 1.553166, , 
4.17, 1.540796, , 
4.20, 1.528225, , 
4.23, 1.515550, , 
4.26, 1.502831, , 
4.29, 1.488053, , 
4.32, 1.475299, , 
4.35, 1.460279, , 
4.38, 1.447338, , 
4.41, 1.436518, , 
4.44, 1.421315, , 
4.47, 1.408418, , 
4.50, 1.393764, , 
4.53, 1.381441, , 
4.56, 1.369248, , 
4.59, 1.355184, , 
4.62, 1.345116, , 
4.65, 1.331058, , 
4.68, 1.319151, , 
4.71, 1.307367, , 
4.74, 1.293766, , 
4.77, 1.282118, , 
4.80, 1.268637, , 
4.83, 1.259141, , 
4.86, 1.247896, , 
4.89, 1.234847, , 
4.92, 1.223587, , 
4.95, 1.210299, , 
4.98, 1.198817, , 
5.01, 1.187214, , 
5.04, 1.175611, , 
5.07, 1.164081, , 
5.10, 1.150822, , 
5.13, 1.139575, , 
5.16, 1.128394, , 
5.19, 1.115385, , 
5.23, 1.104344, , 
5.25, 1.093423, , 
5.28, 1.082493, , 
5.31, 1.071629, , 
5.34, 1.059055, , 
5.37, 1.048299, , 
5.40, 1.035732, , 
5.43, 1.026876, , 
5.46, 1.016500, , 
5.49, 1.004593, , 
5.52, 0.994519, , 
5.55, 0.982887, , 
5.58, 0.972994, , 
5.61, 0.963142, , 
5.64, 0.953315, , 
5.67, 0.943590, , 
5.70, 0.932470, , 
5.73, 0.923033, , 
5.76, 0.913711, , 
5.79, 0.902990, , 
5.82, 0.893892, , 
5.85, 0.884818, , 
5.88, 0.875812, , 
5.91, 0.866804, , 
5.94, 0.856359, , 
5.97, 0.847497, , 
6.00, 0.837118, , 
6.03, 0.828214, , 
6.06, 0.820830, , 
6.09, 0.810712, , 
6.12, 0.802144, , 
6.15, 0.792178, , 
6.18, 0.783674, , 
6.21, 0.775272, , 
6.24, 0.765489, , 
6.27, 0.758549, , 
6.30, 0.748849, , 
6.33, 0.740529, , 
6.36, 0.732267, , 
6.39, 0.724181, 2, 0.586
6.39, 0.722846, , 
6.42, 0.715018, , 
6.46, 0.706079, , 
6.48, 0.699802, , 
6.51, 0.692414, , 
6.54, 0.683977, , 
6.57, 0.676942, , 
6.60, 0.668907, , 
6.63, 0.662087, , 
6.66, 0.656451, , 
6.69, 0.648677, , 
6.72, 0.642139, , 
6.75, 0.634618, , 
6.78, 0.628281, , 
6.81, 0.622016, , 
6.84, 0.614784, , 
6.87, 0.609627, , 
6.90, 0.602458, , 
6.93, 0.596305, , 
6.96, 0.590072, , 
6.99, 0.582808, , 
7.02, 0.576591, , 
7.05, 0.569391, , 
7.08, 0.564249, , 
7.11, 0.558096, , 
7.14, 0.550975, , 
7.17, 0.544951, , 
7.20, 0.538950, , 
7.23, 0.531914, , 
7.26, 0.525885, , 
7.29, 0.518935, , 
7.32, 0.514012, , 
7.35, 0.508214, , 
7.38, 0.501607, , 
7.41, 0.496084, , 
7.44, 0.489747, , 
7.47, 0.484392, , 
7.50, 0.479152, , 
7.53, 0.474004, , 
7.56, 0.468875, , 
7.59, 0.462982, , 
7.62, 0.458046, , 
7.65, 0.453139, , 
7.68, 0.447570, , 
7.72, 0.442973, , 
7.74, 0.438390, , 
7.77, 0.433740, , 
7.80, 0.429049, , 
7.83, 0.423729, , 
7.86, 0.419197, , 
7.89, 0.413855, , 
7.92, 0.410090, , 
7.95, 0.404894, , 
7.98, 0.400428, , 
8.01, 0.395899, , 
8.04, 0.390598, , 
8.07, 0.386859, , 
8.10, 0.381784, , 
8.13, 0.377467, , 
8.16, 0.373229, , 
8.19, 0.368185, , 
8.22, 0.363872, , 
8.25, 0.358828, , 
8.28, 0.355269, , 
8.31, 0.351171, , 
8.34, 0.346486, , 
8.37, 0.342537, , 
8.40, 0.338058, , 
8.43, 0.334312, , 
8.46, 0.330563, , 
8.49, 0.326817, , 
8.52, 0.323112, , 
8.55, 0.318948, , 
8.58, 0.315458, , 
8.61, 0.311947, , 
8.64, 0.307969, , 
8.67, 0.304661, , 
8.70, 0.301356, , 
8.73, 0.298045, , 
8.76, 0.294762, , 
8.79, 0.290949, , 
8.82, 0.287717, , 
8.85, 0.284573, , 
8.88, 0.281427, , 
8.91, 0.277827, , 
8.94, 0.274829, , 
8.97, 0.271349, , 
9.00, 0.268365, , 
9.03, 0.265906, , 
9.06, 0.262522, , 
9.09, 0.259617, , 
9.12, 0.256257, , 
9.15, 0.253403, , 
9.18, 0.250570, , 
9.21, 0.247322, , 
9.24, 0.245067, , 
9.27, 0.241942, , 
9.30, 0.239322, , 
9.33, 0.236766, , 
9.36, 0.233803, , 
9.39, 0.231285, , 
9.42, 0.228414, , 
9.45, 0.226441, , 
9.48, 0.224123, , 
9.51, 0.221493, , 
9.54, 0.219270, , 
9.57, 0.216688, , 
9.59, 0.215232, 3, 0.586
9.60, 0.214496, , 
9.64, 0.212348, , 
9.66, 0.210277, , 
9.69, 0.208238, , 
9.72, 0.205887, , 
9.75, 0.203924, , 
9.78, 0.202043, , 
9.81, 0.199832, , 
9.84, 0.198271, , 
9.87, 0.196130, , 
9.90, 0.194344, , 
9.93, 0.192533, , 
9.96, 0.190481, , 
9.99, 0.188746, , 
10.02, 0.186716, , 
10.05, 0.185216, , 
10.08, 0.183462, , 
10.11, 0.181457, , 
10.14, 0.179785, , 
10.17, 0.177907, , 
10.20, 0.176258, , 
10.23, 0.174647, , 
10.26, 0.173131, , 
10.29, 0.171621, , 
10.32, 0.169851, , 
10.35, 0.168382, , 
10.38, 0.166964, , 
10.41, 0.165369, , 
10.44, 0.164033, , 
10.47, 0.162717, , 
10.50, 0.161385, , 
10.53, 0.160065, , 
10.56, 0.158533, , 
10.59, 0.157290, , 
10.62, 0.155910, , 
10.65, 0.154695, , 
10.68, 0.153702, , 
10.71, 0.152348, , 
10.74, 0.151203, , 
10.77, 0.149896, , 
10.80, 0.148789, , 
10.83, 0.147641, , 
10.87, 0.146286, , 
10.89, 0.145313, , 
10.92, 0.144006, , 
10.95, 0.142924, , 
10.98, 0.141811, , 
11.01, 0.140536, , 
11.04, 0.139432, , 
11.07, 0.138344, , 
11.10, 0.137237, , 
11.13, 0.136152, , 
11.16, 0.134998, , 
11.19, 0.134052, , 
11.22, 0.133031, , 
11.25, 0.131832, , 
11.28, 0.130855, , 
11.31, 0.129964, , 
11.34, 0.129022, , 
11.37, 0.128124, , 
11.40, 0.127093, , 
11.43, 0.126205, , 
11.46, 0.125171, , 
11.49, 0.124264, , 
11.52, 0.123547, , 
11.55, 0.122535, , 
11.58, 0.121663, , 
11.61, 0.120851, , 
11.64, 0.119972, , 
11.67, 0.119236, , 
11.70, 0.118513, , 
11.73, 0.117669, , 
11.76, 0.116895, , 
11.80, 0.116039, , 
11.82, 0.115436, , 
11.85, 0.114710, , 
11.88, 0.113863, , 
11.91, 0.113143, , 
11.94, 0.112277, , 
11.97, 0.111481, , 
12.00, 0.110859, , 
12.03, 0.109952, , 
12.06, 0.109229, , 
12.09, 0.108401, , 
12.13, 0.107738, , 
12.15, 0.107069, , 
12.18, 0.106412, , 
12.21, 0.105651, , 
12.24, 0.105007, , 
12.27, 0.104420, , 
12.30, 0.103805, , 
12.33, 0.103075, , 
12.36, 0.102447, , 
12.39, 0.101730, , 
12.42, 0.101248, , 
12.45, 0.100712, , 
12.48, 0.100167, , 
12.51, 0.099694, , 
12.54, 0.099139, , 
12.57, 0.098688, , 
12.60, 0.098254, , 
12.63, 0.097829, , 
12.66, 0.097378, , 
12.69, 0.096871, , 
12.72, 0.096427, , 
12.75, 0.095992, , 
12.78, 0.095453, , 
12.79, 0.095377, 4, 0.585
12.81, 0.095047, , 
12.84, 0.094616, , 
12.87, 0.094184, , 
12.90, 0.093731, , 
12.93, 0.093217, , 
12.96, 0.092785, , 
12.99, 0.092287, , 
13.03, 0.091799, , 
13.05, 0.091368, , 
13.08, 0.090933, , 
13.11, 0.090511, , 
13.14, 0.090007, , 
13.17, 0.089639, , 
13.20, 0.089131, , 
13.23, 0.088725, , 
13.26, 0.088389, , 
13.29, 0.088028, , 
13.32, 0.087688, , 
13.35, 0.087222, , 
13.38, 0.086895, , 
13.41, 0.086553, , 
13.44, 0.086216, , 
13.47, 0.085953, , 
13.50, 0.085645, , 
13.53, 0.085354, , 
13.56, 0.085090, , 
13.59, 0.084811, , 
13.62, 0.084491, , 
13.65, 0.084167, , 
13.68, 0.083879, , 
13.71, 0.083622, , 
13.74, 0.083222, , 
13.77, 0.082854, , 
13.80, 0.082556, , 
13.83, 0.082286, , 
13.86, 0.082001, , 
13.89, 0.081728, , 
13.92, 0.081500, , 
13.95, 0.081205, , 
13.98, 0.080986, , 
14.01, 0.080837, , 
14.04, 0.080570, , 
14.07, 0.080364, , 
14.10, 0.080183, , 
14.13, 0.080031, , 
14.16, 0.079888, , 
14.20, 0.079714, , 
14.22, 0.079638, , 
14.25, 0.079600, , 
14.28, 0.079524, , 
14.31, 0.079400, , 
14.34, 0.079238, , 
14.37, 0.079171, , 
14.40, 0.079137, , 
14.43, 0.079064, , 
14.46, 0.079007, , 
14.49, 0.079022, , 
14.52, 0.079057, , 
14.55, 0.079067, , 
14.58, 0.079041, , 
14.61, 0.079064, , 
14.64, 0.079086, , 
14.67, 0.079060, , 
14.70, 0.079038, , 
14.73, 0.079064, , 
14.76, 0.079067, , 
14.79, 0.079057, , 
14.82, 0.079070, , 
14.85, 0.079146, , 
14.88, 0.079279, , 
14.91, 0.079378, , 
14.94, 0.079435, , 
14.97, 0.079492, , 
15.00, 0.079577, , 
15.03, 0.079720, , 
15.06, 0.079847, , 
15.09, 0.079968, , 
15.12, 0.080114, , 
15.15, 0.080269, , 
15.18, 0.080390, , 
15.21, 0.080535, , 
15.24, 0.080738, , 
15.27, 0.080910, , 
15.30, 0.081125, , 
15.33, 0.081341, , 
15.36, 0.081465, , 
15.39, 0.081677, , 
15.42, 0.081874, , 
15.45, 0.082061, , 
15.48, 0.082251, , 
15.51, 0.082366, , 
15.54, 0.082543, , 
15.57, 0.082734, , 
15.60, 0.082892, , 
15.63, 0.082952, , 
15.66, 0.082994, , 
15.69, 0.083095, , 
15.72, 0.083206, , 
15.75, 0.083330, , 
15.78, 0.083444, , 
15.81, 0.083492, , 
15.84, 0.083511, , 
15.87, 0.083536, , 
15.90, 0.083533, , 
15.93, 0.083552, , 
15.96, 0.083530, , 
15.99, 0.083508, 5, 0.587
16.00, 0.083514, , 
16.02, 0.083546, , 
16.05, 0.083571, , 
16.08, 0.083504, , 
16.11, 0.083400, , 
16.14, 0.083273, , 
16.17, 0.083190, , 
16.20, 0.083133, , 
16.23, 0.083048, , 
16.27, 0.082981, , 
16.29, 0.082848, , 
16.32, 0.082734, , 
16.35, 0.082613, , 
16.38, 0.082432, , 
16.41, 0.082251, , 
16.44, 0.081991, , 
16.47, 0.081782, , 
16.50, 0.081627, , 
16.53, 0.081398, , 
16.56, 0.081144, , 
16.59, 0.080884, , 
16.62, 0.080694, , 
16.65, 0.080421, , 
16.68, 0.080063, , 
16.71, 0.079857, , 
16.74, 0.079520, , 
16.77, 0.079165, , 
16.80, 0.078829, , 
16.83, 0.078458, , 
16.86, 0.078160, , 
16.89, 0.077808, , 
16.92, 0.077443, , 
16.95, 0.077113, , 
16.98, 0.076764, , 
17.01, 0.076453, , 
17.04, 0.076006, , 
17.07, 0.075590, , 
17.10, 0.075318, , 
17.13, 0.074966, , 
17.16, 0.074642, , 
17.19, 0.074223, , 
17.22, 0.073858, , 
17.25, 0.073475, , 
17.28, 0.073043, , 
17.31, 0.072777, , 
17.34, 0.072428, , 
17.37, 0.072136, , 
17.40, 0.071838, , 
17.43, 0.071480, , 
17.46, 0.071150, , 
17.49, 0.070702, , 
17.52, 0.070398, , 
17.55, 0.070068, , 
17.58, 0.069735, , 
17.61, 0.069418, , 
17.64, 0.069056, , 
17.67, 0.068771, , 
17.70, 0.068463, , 
17.73, 0.068098, , 
17.76, 0.067753, , 
17.79, 0.067381, , 
17.82, 0.067115, , 
17.85, 0.066807, , 
17.88, 0.066455, , 
17.91, 0.066208, , 
17.94, 0.066024, , 
17.97, 0.065732, , 
18.00, 0.065427, , 
18.03, 0.065075, , 
18.06, 0.064818, , 
18.09, 0.064479, , 
18.12, 0.064222, , 
18.15, 0.063940, , 
18.18, 0.063677, , 
18.21, 0.063458, , 
18.24, 0.063210, , 
18.27, 0.062985, , 
18.30, 0.062782, , 
18.33, 0.062598, , 
18.36, 0.062367, , 
18.39, 0.062132, , 
18.42, 0.061916, , 
18.45, 0.061716, , 
18.48, 0.061472, , 
18.51, 0.061244, , 
18.54, 0.061126, , 
18.57, 0.060961, , 
18.60, 0.060768, , 
18.63, 0.060574, , 
18.66, 0.060390, , 
18.69, 0.060191, , 
18.72, 0.060016, , 
18.75, 0.059889, , 
18.78, 0.059715, , 
18.81, 0.059594, , 
18.84, 0.059452, , 
18.87, 0.059245, , 
18.90, 0.059125, , 
18.93, 0.059030, , 
18.96, 0.058947, , 
18.99, 0.058817, , 
19.02, 0.058687, , 
19.05, 0.058598, , 
19.08, 0.058513, , 
19.11, 0.058383, , 
19.14, 0.058262, , 
19.17, 0.058135, , 
19.19, 0.058081, 6, 0.584
19.20, 0.058046, , 
19.23, 0.057967, , 
19.26, 0.057840, , 
19.29, 0.057669, , 
19.32, 0.057558, , 
19.35, 0.057533, , 
19.38, 0.057485, , 
19.41, 0.057371, , 
19.44, 0.057219, , 
19.47, 0.057073, , 
19.50, 0.057012, , 
19.53, 0.056981, , 
19.56, 0.056905, , 
19.59, 0.056746, , 
19.62, 0.056632, , 
19.65, 0.056543, , 
19.68, 0.056454, , 
19.71, 0.056438, , 
19.74, 0.056419, , 
19.77, 0.056267, , 
19.80, 0.056131, , 
19.83, 0.056016, , 
19.86, 0.055953, , 
19.89, 0.055905, , 
19.92, 0.055883, , 
19.95, 0.055880, , 
19.98, 0.055804, , 
20.01, 0.055690, , 
20.04, 0.055569, , 
20.07, 0.055464, , 
20.10, 0.055426, , 
20.13, 0.055341, , 
20.16, 0.055198, , 
20.20, 0.055081, , 
20.22, 0.054982, , 
20.25, 0.054900, , 
20.28, 0.054805, , 
20.31, 0.054754, , 
20.34, 0.054646, , 
20.37, 0.054513, , 
20.40, 0.054421, , 
20.43, 0.054361, , 
20.46, 0.054275, , 
20.49, 0.054180, , 
20.52, 0.054021, , 
20.55, 0.053917, , 
20.58, 0.053828, , 
20.61, 0.053745, , 
20.64, 0.053580, , 
20.67, 0.053447, , 
20.70, 0.053358, , 
20.73, 0.053298, , 
20.76, 0.053263, , 
20.79, 0.053257, , 
20.82, 0.053241, , 
20.85, 0.053143, , 
20.88, 0.053016, , 
20.91, 0.052892, , 
20.94, 0.052829, , 
20.97, 0.052762, , 
21.00, 0.052737, , 
21.03, 0.052743, , 
21.06, 0.052721, , 
21.09, 0.052721, , 
21.12, 0.052705, , 
21.15, 0.052733, , 
21.18, 0.052759, , 
21.21, 0.052746, , 
21.24, 0.052730, , 
21.27, 0.052733, , 
21.30, 0.052724, , 
21.33, 0.052705, , 
21.36, 0.052708, , 
21.39, 0.052727, , 
21.42, 0.052708, , 
21.45, 0.052733, , 
21.48, 0.052816, , 
21.51, 0.052959, , 
21.54, 0.053073, , 
21.57, 0.053228, , 
21.60, 0.053406, , 
21.63, 0.053612, , 
21.66, 0.053850, , 
21.69, 0.053999, , 
21.72, 0.054262, , 
21.75, 0.054630, , 
21.78, 0.054884, , 
21.81, 0.055208, , 
21.84, 0.055541, , 
21.87, 0.055912, , 
21.90, 0.056327, , 
21.93, 0.056755, , 
21.96, 0.057260, , 
21.99, 0.057713, , 
22.02, 0.058186, , 
22.05, 0.058722, , 
22.08, 0.059372, , 
22.11, 0.059918, , 
22.14, 0.060492, , 
22.17, 0.061202, , 
22.20, 0.061846, , 
22.23, 0.062525, , 
22.26, 0.063156, , 
22.29, 0.063791, , 
22.32, 0.064549, , 
22.35, 0.065275, , 
22.38, 0.066125, 7, 0.585
22.39, 0.066240, , 
22.41, 0.066801, , 
22.44, 0.067407, , 
22.47, 0.068330, , 
22.50, 0.069116, , 
22.53, 0.069973, , 
22.56, 0.070696, , 
22.59, 0.071451, , 
22.62, 0.072288, , 
22.65, 0.072878, , 
22.68, 0.073741, , 
22.71, 0.074477, , 
22.74, 0.075203, , 
22.77, 0.076047, , 
22.80, 0.076774, , 
22.83, 0.077655, , 
22.86, 0.078223, , 
22.89, 0.078848, , 
22.92, 0.079524, , 
22.95, 0.080133, , 
22.98, 0.080827, , 
23.01, 0.081379, , 
23.05, 0.081871, , 
23.07, 0.082366, , 
23.10, 0.082826, , 
23.13, 0.083314, , 
23.16, 0.083768, , 
23.19, 0.084205, , 
23.22, 0.084707, , 
23.25, 0.085059, , 
23.28, 0.085474, , 
23.31, 0.085779, , 
23.34, 0.086032, , 
23.37, 0.086254, , 
23.40, 0.086461, , 
23.43, 0.086632, , 
23.46, 0.086737, , 
23.49, 0.086882, , 
23.52, 0.087035, , 
23.55, 0.087162, , 
23.58, 0.087212, , 
23.61, 0.087155, , 
23.64, 0.087047, , 
23.67, 0.086978, , 
23.70, 0.086911, , 
23.73, 0.086800, , 
23.76, 0.086660, , 
23.79, 0.086524, , 
23.82, 0.086397, , 
23.85, 0.086235, , 
23.88, 0.086020, , 
23.91, 0.085782, , 
23.94, 0.085442, , 
23.97, 0.085170, , 
24.00, 0.084916, , 
24.03, 0.084621, , 
24.06, 0.084266, , 
24.09, 0.083793, , 
24.12, 0.083374, , 
24.15, 0.082937, , 
24.18, 0.082499, , 
24.21, 0.082039, , 
24.24, 0.081690, , 
24.27, 0.081278, , 
24.30, 0.080726, , 
24.33, 0.080225, , 
24.36, 0.079765, , 
24.39, 0.079355, , 
24.42, 0.078915, , 
24.45, 0.078382, , 
24.48, 0.077950, , 
24.51, 0.077455, , 
24.54, 0.077062, , 
24.57, 0.076491, , 
24.60, 0.075803, , 
24.63, 0.075289, , 
24.66, 0.074753, , 
24.69, 0.074255, , 
24.72, 0.073687, , 
24.75, 0.073151, , 
24.78, 0.072504, , 
24.81, 0.072085, , 
24.84, 0.071568, , 
24.87, 0.071108, , 
24.90, 0.070614, , 
24.93, 0.069932, , 
24.96, 0.069373, , 
24.99, 0.068796, , 
25.02, 0.068365, , 
25.05, 0.067810, , 
25.08, 0.067366, , 
25.11, 0.066953, , 
25.14, 0.066433, , 
25.17, 0.065894, , 
25.20, 0.065345, , 
25.23, 0.064793, , 
25.26, 0.064289, , 
25.29, 0.063743, , 
25.32, 0.063296, , 
25.35, 0.062823, , 
25.38, 0.062306, , 
25.41, 0.061862, , 
25.44, 0.061434, , 
25.47, 0.060996, , 
25.50, 0.060552, , 
25.53, 0.060038, , 
25.56, 0.059620, , 
25.58, 0.059280, 8, 0.586
25.59, 0.059153, , 
25.62, 0.058785, , 
25.65, 0.058497, , 
25.68, 0.058119, , 
25.71, 0.057780, , 
25.74, 0.057355, , 
25.77, 0.056939, , 
25.80, 0.056587, , 
25.84, 0.056248, , 
25.86, 0.055959, , 
25.89, 0.055620, , 
25.92, 0.055350, , 
25.95, 0.055065, , 
25.98, 0.054713, , 
26.01, 0.054418, , 
26.04, 0.054177, , 
26.07, 0.053936, , 
26.10, 0.053685, , 
26.13, 0.053469, , 
26.16, 0.053250, , 
26.19, 0.053009, , 
26.22, 0.052870, , 
26.26, 0.052714, , 
26.28, 0.052530, , 
26.31, 0.052394, , 
26.34, 0.052232, , 
26.37, 0.052058, , 
26.40, 0.051937, , 
26.43, 0.051807, , 
26.46, 0.051753, , 
26.49, 0.051684, , 
26.52, 0.051572, , 
26.55, 0.051455, , 
26.58, 0.051312, , 
26.61, 0.051246, , 
26.64, 0.051208, , 
26.67, 0.051220, , 
26.70, 0.051233, , 
26.73, 0.051366, , 
26.76, 0.051477, , 
26.79, 0.051582, , 
26.82, 0.051655, , 
26.85, 0.051782, , 
26.88, 0.051925, , 
26.91, 0.052032, , 
26.94, 0.052178, , 
26.97, 0.052388, , 
27.00, 0.052588, , 
27.03, 0.052860, , 
27.06, 0.053181, , 
27.09, 0.053511, , 
27.12, 0.053821, , 
27.15, 0.054104, , 
27.18, 0.054500, , 
27.21, 0.054966, , 
27.24, 0.055633, , 
27.27, 0.056200, , 
27.30, 0.056759, , 
27.33, 0.057482, , 
27.36, 0.058211, , 
27.39, 0.059176, , 
27.42, 0.060029, , 
27.45, 0.061117, , 
27.49, 0.062436, , 
27.51, 0.063505, , 
27.54, 0.065205, , 
27.57, 0.066703, , 
27.60, 0.068615, , 
27.63, 0.070883, , 
27.66, 0.072974, , 
27.69, 0.075292, , 
27.72, 0.077833, , 
27.75, 0.080583, , 
27.78, 0.084072, , 
27.81, 0.087301, , 
27.84, 0.090812, , 
27.87, 0.094632, , 
27.90, 0.099446, , 
27.93, 0.103878, , 
27.96, 0.108648, , 
27.99, 0.114627, , 
28.02, 0.119141, , 
28.05, 0.125837, , 
28.08, 0.131956, , 
28.11, 0.138360, , 
28.14, 0.146169, , 
28.17, 0.153144, , 
28.20, 0.160414, , 
28.23, 0.169223, , 
28.26, 0.176981, , 
28.29, 0.184924, , 
28.32, 0.193034, , 
28.35, 0.201262, , 
28.38, 0.211051, , 
28.41, 0.219568, , 
28.44, 0.229654, , 
28.47, 0.238317, , 
28.50, 0.245495, , 
28.53, 0.255493, , 
28.56, 0.263987, , 
28.59, 0.273703, , 
28.62, 0.281871, , 
28.65, 0.289861, , 
28.68, 0.298904, , 
28.71, 0.305172, , 
28.74, 0.312439, , 
28.77, 0.320597, , 
28.79, 0.324032, 9, 0.586
28.80, 0.327379, , 
28.83, 0.334940, , 
28.86, 0.341056, , 
28.89, 0.346861, , 
28.92, 0.352339, , 
28.95, 0.357429, , 
28.98, 0.362853, , 
29.01, 0.367113, , 
