Gradient Profiler Text Data File: 20231116_MV_I_40C.csv
Date: 2023-11-16
Time: 18:01:10

User: jared
Experiment name: 20231116_BY4742_30
UV Unit: EM-1
Rotor Manufacturer: Beckman
Rotor Model: SW28.1
Speed: 28 rpm
Gradient: sucrose 10.0% to 50.0% w/v
Time: 4
w2t:  x 10^0
Sample Volume: 18 ml
Number of Tubes: 6
Volume per mm: 0.183 ml/mm

Absorbance Units Full Scale (AUFS): 2.00
Event Mark-triggered gradient; (with distance; auto start and stop)
Delay: No Delay
UV Wavelength: 254 nm
Samples / sec: 10 Hz
EM1 Speed: 0.30 mm/sec
Distance: 3.20 mm
Number: 30
Dead Volume: 0.000000 ml; Distance due to Dead Volume: 0.00 mm
Total Distance: 96.00 mm

Data Columns:
Distance(mm), Absorbance, Fraction Number, Fraction Volume(ml)
0.00, 1.734284, 0, 0.000
0.03, 1.734297, , 
0.06, 1.734290, , 
0.09, 1.734227, , 
0.12, 1.734271, , 
0.15, 1.734630, , 
0.18, 1.735128, , 
0.21, 1.735768, , 
0.24, 1.736314, , 
0.27, 1.737031, , 
0.30, 1.737376, , 
0.33, 1.736986, , 
0.36, 1.735819, , 
0.39, 1.734347, , 
0.42, 1.732723, , 
0.45, 1.731797, , 
0.48, 1.732733, , 
0.51, 1.736777, , 
0.54, 1.742347, , 
0.57, 1.749443, , 
0.60, 1.759222, , 
0.64, 1.768611, , 
0.66, 1.778678, , 
0.69, 1.789307, , 
0.72, 1.800520, , 
0.75, 1.814350, , 
0.78, 1.826387, , 
0.81, 1.840915, , 
0.85, 1.854110, , 
0.87, 1.865770, , 
0.90, 1.882807, , 
0.93, 1.898086, , 
0.96, 1.913628, , 
0.99, 1.930560, , 
1.02, 1.942965, , 
1.05, 1.954978, , 
1.08, 1.962048, , 
1.11, 1.969067, , 
1.14, 1.975138, , 
1.17, 1.978361, , 
1.20, 1.980128, , 
1.23, 1.980461, , 
1.26, 1.980220, , 
1.29, 1.979801, , 
1.32, 1.979420, , 
1.35, 1.979106, , 
1.38, 1.978954, , 
1.41, 1.978802, , 
1.44, 1.978494, , 
1.47, 1.978038, , 
1.50, 1.977473, , 
1.53, 1.976835, , 
1.56, 1.976198, , 
1.59, 1.975500, , 
1.62, 1.975072, , 
1.65, 1.975272, , 
1.68, 1.976413, , 
1.71, 1.978018, , 
1.74, 1.980822, , 
1.77, 1.983382, , 
1.80, 1.986180, , 
1.83, 1.988238, , 
1.86, 1.990097, , 
1.90, 1.992099, , 
1.92, 1.993355, , 
1.95, 1.994909, , 
1.98, 1.996099, , 
2.01, 1.997209, , 
2.04, 1.998316, , 
2.07, 1.999178, , 
2.10, 1.999981, , 
2.13, 2.000787, , 
2.16, 2.001557, , 
2.19, 2.002322, , 
2.22, 2.002918, , 
2.25, 2.003451, , 
2.28, 2.004044, , 
2.31, 2.004476, , 
2.34, 2.004945, , 
2.37, 2.005411, , 
2.40, 2.005782, , 
2.43, 2.006112, , 
2.46, 2.006391, , 
2.49, 2.006766, , 
2.52, 2.006988, , 
2.56, 2.007127, , 
2.58, 2.007267, , 
2.61, 2.007375, , 
2.64, 2.007435, , 
2.67, 2.007571, , 
2.70, 2.007816, , 
2.73, 2.008234, , 
2.76, 2.008672, , 
2.79, 2.009433, , 
2.82, 2.010331, , 
2.85, 2.011539, , 
2.88, 2.013030, , 
2.91, 2.014290, , 
2.94, 2.015511, , 
2.97, 2.016275, , 
3.00, 2.017040, , 
3.03, 2.017769, , 
3.06, 2.018381, , 
3.09, 2.019146, , 
3.12, 2.019739, , 
3.15, 2.020218, , 
3.18, 2.020618, , 
3.21, 2.020884, , 
3.24, 2.020909, , 
3.27, 2.020671, , 
3.30, 2.020183, , 
3.33, 2.019178, , 
3.36, 2.017890, , 
3.39, 2.016332, , 
3.42, 2.014664, , 
3.45, 2.012916, , 
3.48, 2.010959, , 
3.51, 2.009272, , 
3.54, 2.007327, , 
3.58, 2.005481, , 
3.60, 2.003790, , 
3.63, 2.001120, , 
3.66, 1.998582, , 
3.69, 1.995391, , 
3.72, 1.992333, , 
3.75, 1.989031, , 
3.78, 1.985492, , 
3.81, 1.981844, , 
3.84, 1.977660, , 
3.87, 1.974158, , 
3.90, 1.970828, , 
3.93, 1.967117, , 
3.96, 1.964005, , 
3.99, 1.961080, , 
4.02, 1.958299, , 
4.05, 1.955685, , 
4.08, 1.952862, , 
4.11, 1.950676, , 
4.14, 1.948469, , 
4.17, 1.946908, , 
4.20, 1.945909, , 
4.23, 1.944875, , 
4.26, 1.944393, , 
4.29, 1.944228, , 
4.32, 1.944361, , 
4.35, 1.944589, , 
4.38, 1.945008, , 
4.41, 1.945351, , 
4.44, 1.945839, , 
4.47, 1.946248, , 
4.50, 1.946696, , 
4.53, 1.947197, , 
4.56, 1.947590, , 
4.57, 1.947663, 1, 0.836
4.59, 1.948079, , 
4.62, 1.948412, , 
4.65, 1.948748, , 
4.68, 1.949005, , 
4.71, 1.948960, , 
4.74, 1.948405, , 
4.77, 1.947219, , 
4.80, 1.945176, , 
4.83, 1.942353, , 
4.86, 1.938918, , 
4.89, 1.935048, , 
4.92, 1.929811, , 
4.95, 1.924740, , 
4.98, 1.917977, , 
5.02, 1.911335, , 
5.04, 1.903976, , 
5.07, 1.895961, , 
5.10, 1.887250, , 
5.13, 1.876276, , 
5.16, 1.866078, , 
5.19, 1.855163, , 
5.22, 1.841898, , 
5.25, 1.832373, , 
5.28, 1.819361, , 
5.31, 1.808973, , 
5.34, 1.799565, , 
5.37, 1.789834, , 
5.40, 1.782294, , 
5.43, 1.775443, , 
5.46, 1.768281, , 
5.50, 1.762831, , 
5.52, 1.757785, , 
5.55, 1.752913, , 
5.58, 1.747752, , 
5.61, 1.741072, , 
5.64, 1.735270, , 
5.67, 1.728276, , 
5.70, 1.722709, , 
5.73, 1.714983, , 
5.76, 1.704407, , 
5.79, 1.694102, , 
5.82, 1.680656, , 
5.85, 1.667778, , 
5.88, 1.653825, , 
5.91, 1.638704, , 
5.94, 1.622606, , 
5.97, 1.602693, , 
6.00, 1.584781, , 
6.03, 1.566187, , 
6.06, 1.544038, , 
6.09, 1.525231, , 
6.12, 1.506939, , 
6.15, 1.488970, , 
6.18, 1.471080, , 
6.21, 1.450754, , 
6.24, 1.434273, , 
6.27, 1.416488, , 
6.30, 1.402303, , 
6.33, 1.391023, , 
6.36, 1.375697, , 
6.39, 1.362949, , 
6.42, 1.350505, , 
6.45, 1.336247, , 
6.48, 1.324194, , 
6.51, 1.310304, , 
6.54, 1.300439, , 
6.57, 1.288706, , 
6.60, 1.275159, , 
6.63, 1.263594, , 
6.66, 1.250145, , 
6.69, 1.238663, , 
6.72, 1.227237, , 
6.75, 1.215841, , 
6.78, 1.204460, , 
6.81, 1.191214, , 
6.84, 1.179890, , 
6.87, 1.168633, , 
6.90, 1.155555, , 
6.94, 1.144304, , 
6.96, 1.133101, , 
6.99, 1.121993, , 
7.02, 1.110996, , 
7.05, 1.098190, , 
7.08, 1.087209, , 
7.11, 1.074534, , 
7.15, 1.063800, , 
7.17, 1.054922, , 
7.20, 1.042732, , 
7.23, 1.032411, , 
7.26, 1.022270, , 
7.29, 1.010499, , 
7.32, 1.000530, , 
7.35, 0.990668, , 
7.38, 0.979290, , 
7.41, 0.969683, , 
7.44, 0.960205, , 
7.47, 0.950825, , 
7.50, 0.941487, , 
7.53, 0.930696, , 
7.56, 0.921501, , 
7.59, 0.911037, , 
7.62, 0.902130, , 
7.65, 0.894752, , 
7.68, 0.884564, , 
7.71, 0.875920, , 
7.74, 0.865827, , 
7.77, 0.857177, 2, 0.587
7.78, 0.855706, , 
7.80, 0.848537, , 
7.83, 0.838602, , 
7.86, 0.830149, , 
7.89, 0.823149, , 
7.92, 0.813363, , 
7.95, 0.805043, , 
7.98, 0.795496, , 
8.01, 0.787312, , 
8.04, 0.779179, , 
8.07, 0.769822, , 
8.10, 0.763180, , 
8.13, 0.754013, , 
8.16, 0.746220, , 
8.19, 0.738496, , 
8.22, 0.730880, , 
8.25, 0.722053, , 
8.28, 0.714637, , 
8.31, 0.706117, , 
8.34, 0.698872, , 
8.37, 0.691685, , 
8.40, 0.684583, , 
8.43, 0.677557, , 
8.46, 0.669446, , 
8.49, 0.662620, , 
8.52, 0.655886, , 
8.55, 0.648131, , 
8.59, 0.641571, , 
8.61, 0.635120, , 
8.64, 0.628779, , 
8.67, 0.622540, , 
8.70, 0.615301, , 
8.73, 0.609056, , 
8.76, 0.601741, , 
8.79, 0.596539, , 
8.82, 0.590456, , 
8.85, 0.583404, , 
8.88, 0.577387, , 
8.91, 0.570463, , 
8.94, 0.564557, , 
8.97, 0.558641, , 
9.00, 0.552830, , 
9.03, 0.547095, , 
9.06, 0.540428, , 
9.09, 0.534677, , 
9.12, 0.528999, , 
9.15, 0.522465, , 
9.18, 0.516902, , 
9.21, 0.511395, , 
9.24, 0.505955, , 
9.27, 0.500626, , 
9.30, 0.494416, , 
9.33, 0.489147, , 
9.36, 0.483146, , 
9.39, 0.478112, , 
9.42, 0.473960, , 
9.45, 0.468197, , 
9.48, 0.463359, , 
9.51, 0.457812, , 
9.54, 0.453079, , 
9.57, 0.448397, , 
9.60, 0.442992, , 
9.63, 0.439215, , 
9.66, 0.434723, , 
9.69, 0.429477, , 
9.72, 0.425014, , 
9.75, 0.420541, , 
9.78, 0.415305, , 
9.81, 0.410902, , 
9.84, 0.406626, , 
9.87, 0.401615, , 
9.90, 0.397301, , 
9.94, 0.392460, , 
9.96, 0.389022, , 
9.99, 0.384889, , 
10.02, 0.380106, , 
10.05, 0.376084, , 
10.08, 0.371560, , 
10.11, 0.367754, , 
10.14, 0.364589, , 
10.17, 0.360183, , 
10.20, 0.356475, , 
10.23, 0.352196, , 
10.26, 0.348592, , 
10.29, 0.345043, , 
10.32, 0.340948, , 
10.35, 0.337494, , 
10.38, 0.334068, , 
10.41, 0.330677, , 
10.44, 0.327375, , 
10.47, 0.324188, , 
10.50, 0.320502, , 
10.53, 0.317381, , 
10.56, 0.313777, , 
10.59, 0.310732, , 
10.62, 0.307668, , 
10.65, 0.304591, , 
10.68, 0.301515, , 
10.71, 0.297987, , 
10.74, 0.295076, , 
10.77, 0.292234, , 
10.80, 0.288928, , 
10.83, 0.286112, , 
10.86, 0.283809, , 
10.89, 0.280650, , 
10.92, 0.277903, , 
10.95, 0.274696, , 
10.97, 0.272891, 3, 0.586
10.98, 0.272000, , 
11.01, 0.268996, , 
11.04, 0.266880, , 
11.07, 0.264359, , 
11.10, 0.261444, , 
11.13, 0.258979, , 
11.16, 0.256181, , 
11.19, 0.253825, , 
11.22, 0.251439, , 
11.25, 0.249092, , 
11.28, 0.246869, , 
11.31, 0.244753, , 
11.34, 0.242272, , 
11.37, 0.240150, , 
11.40, 0.237749, , 
11.43, 0.235726, , 
11.46, 0.234063, , 
11.49, 0.231745, , 
11.52, 0.229784, , 
11.55, 0.227475, , 
11.58, 0.225537, , 
11.61, 0.223656, , 
11.64, 0.221404, , 
11.67, 0.219745, , 
11.70, 0.217373, , 
11.73, 0.215403, , 
11.76, 0.213531, , 
11.79, 0.211428, , 
11.82, 0.209627, , 
11.85, 0.207543, , 
11.88, 0.206081, , 
11.91, 0.204317, , 
11.94, 0.202258, , 
11.97, 0.200514, , 
12.00, 0.198484, , 
12.03, 0.196727, , 
12.06, 0.195036, , 
12.09, 0.193431, , 
12.12, 0.191829, , 
12.15, 0.190062, , 
12.18, 0.188572, , 
12.21, 0.187055, , 
12.24, 0.185362, , 
12.28, 0.183960, , 
12.30, 0.182558, , 
12.33, 0.181203, , 
12.36, 0.179823, , 
12.39, 0.178142, , 
12.42, 0.176699, , 
12.45, 0.175135, , 
12.48, 0.174088, , 
12.51, 0.172883, , 
12.54, 0.171424, , 
12.57, 0.170111, , 
12.60, 0.168512, , 
12.63, 0.167094, , 
12.66, 0.165699, , 
12.69, 0.164395, , 
12.72, 0.163180, , 
12.75, 0.161921, , 
12.78, 0.160475, , 
12.81, 0.159206, , 
12.84, 0.157763, , 
12.87, 0.156583, , 
12.90, 0.155393, , 
12.93, 0.154074, , 
12.96, 0.153163, , 
12.99, 0.151898, , 
13.02, 0.150848, , 
13.05, 0.149820, , 
13.08, 0.148615, , 
13.11, 0.147622, , 
13.14, 0.146645, , 
13.17, 0.145719, , 
13.20, 0.144862, , 
13.23, 0.143933, , 
13.26, 0.143178, , 
13.29, 0.142252, , 
13.32, 0.141424, , 
13.35, 0.140723, , 
13.38, 0.139790, , 
13.41, 0.139045, , 
13.44, 0.138173, , 
13.47, 0.137408, , 
13.50, 0.136656, , 
13.53, 0.135806, , 
13.56, 0.135166, , 
13.59, 0.134224, , 
13.62, 0.133418, , 
13.65, 0.132679, , 
13.68, 0.131775, , 
13.71, 0.130982, , 
13.74, 0.130002, , 
13.77, 0.129298, , 
13.80, 0.128530, , 
13.83, 0.127667, , 
13.86, 0.126915, , 
13.89, 0.126043, , 
13.92, 0.125336, , 
13.95, 0.124609, , 
13.98, 0.123934, , 
14.01, 0.123255, , 
14.04, 0.122532, , 
14.07, 0.121939, , 
14.10, 0.121323, , 
14.13, 0.120600, , 
14.17, 0.119994, , 
14.18, 0.119668, 4, 0.587
14.19, 0.119347, , 
14.22, 0.118741, , 
14.25, 0.118199, , 
14.28, 0.117644, , 
14.31, 0.117178, , 
14.34, 0.116629, , 
14.37, 0.116248, , 
14.40, 0.115836, , 
14.43, 0.115297, , 
14.46, 0.114748, , 
14.49, 0.114107, , 
14.52, 0.113555, , 
14.55, 0.112978, , 
14.58, 0.112369, , 
14.61, 0.111808, , 
14.64, 0.111224, , 
14.67, 0.110694, , 
14.70, 0.110206, , 
14.73, 0.109635, , 
14.76, 0.109118, , 
14.79, 0.108550, , 
14.82, 0.107973, , 
14.85, 0.107456, , 
14.88, 0.106935, , 
14.91, 0.106479, , 
14.94, 0.106025, , 
14.97, 0.105492, , 
15.00, 0.105099, , 
15.03, 0.104655, , 
15.06, 0.104309, , 
15.09, 0.103954, , 
15.12, 0.103611, , 
15.15, 0.103332, , 
15.18, 0.102958, , 
15.21, 0.102641, , 
15.24, 0.102355, , 
15.27, 0.101952, , 
15.30, 0.101664, , 
15.33, 0.101362, , 
15.36, 0.101115, , 
15.39, 0.100836, , 
15.43, 0.100446, , 
15.45, 0.100160, , 
15.48, 0.099697, , 
15.51, 0.099256, , 
15.54, 0.098828, , 
15.57, 0.098444, , 
15.60, 0.098146, , 
15.63, 0.097807, , 
15.66, 0.097486, , 
15.69, 0.097204, , 
15.72, 0.096909, , 
15.75, 0.096649, , 
15.78, 0.096360, , 
15.81, 0.096072, , 
15.84, 0.095850, , 
15.87, 0.095643, , 
15.90, 0.095520, , 
15.93, 0.095399, , 
15.96, 0.095231, , 
15.99, 0.095098, , 
16.02, 0.094990, , 
16.05, 0.094933, , 
16.08, 0.094796, , 
16.11, 0.094657, , 
16.14, 0.094543, , 
16.17, 0.094473, , 
16.20, 0.094460, , 
16.24, 0.094409, , 
16.26, 0.094384, , 
16.29, 0.094371, , 
16.32, 0.094381, , 
16.35, 0.094384, , 
16.38, 0.094387, , 
16.41, 0.094419, , 
16.44, 0.094432, , 
16.47, 0.094444, , 
16.50, 0.094549, , 
16.53, 0.094689, , 
16.56, 0.094774, , 
16.59, 0.094831, , 
16.62, 0.094866, , 
16.66, 0.094885, , 
16.68, 0.094974, , 
16.71, 0.095104, , 
16.74, 0.095221, , 
16.77, 0.095323, , 
16.80, 0.095396, , 
16.83, 0.095561, , 
16.86, 0.095650, , 
16.89, 0.095767, , 
16.92, 0.095957, , 
16.95, 0.096113, , 
16.98, 0.096252, , 
17.02, 0.096395, , 
17.04, 0.096589, , 
17.07, 0.096773, , 
17.10, 0.096976, , 
17.13, 0.097188, , 
17.16, 0.097302, , 
17.20, 0.097499, , 
17.22, 0.097626, , 
17.25, 0.097753, , 
17.28, 0.097962, , 
17.31, 0.098121, , 
17.34, 0.098219, , 
17.37, 0.098298, 5, 0.583
17.37, 0.098311, , 
17.40, 0.098378, , 
17.43, 0.098400, , 
17.46, 0.098412, , 
17.49, 0.098419, , 
17.52, 0.098428, , 
17.55, 0.098444, , 
17.58, 0.098451, , 
17.61, 0.098441, , 
17.64, 0.098447, , 
17.67, 0.098339, , 
17.70, 0.098232, , 
17.73, 0.098175, , 
17.76, 0.098114, , 
17.79, 0.098054, , 
17.82, 0.098013, , 
17.85, 0.097962, , 
17.88, 0.097870, , 
17.91, 0.097724, , 
17.94, 0.097629, , 
17.97, 0.097566, , 
18.00, 0.097458, , 
18.03, 0.097296, , 
18.06, 0.097128, , 
18.09, 0.097004, , 
18.12, 0.096871, , 
18.15, 0.096693, , 
18.18, 0.096557, , 
18.21, 0.096373, , 
18.24, 0.096195, , 
18.27, 0.095992, , 
18.30, 0.095748, , 
18.33, 0.095510, , 
18.36, 0.095244, , 
18.39, 0.094930, , 
18.42, 0.094644, , 
18.45, 0.094337, , 
18.48, 0.094035, , 
18.51, 0.093683, , 
18.54, 0.093372, , 
18.57, 0.093118, , 
18.60, 0.092808, , 
18.63, 0.092516, , 
18.66, 0.092138, , 
18.69, 0.091885, , 
18.72, 0.091625, , 
18.75, 0.091222, , 
18.78, 0.090946, , 
18.81, 0.090638, , 
18.84, 0.090334, , 
18.87, 0.090035, , 
18.90, 0.089731, , 
18.93, 0.089477, , 
18.97, 0.089100, , 
18.99, 0.088849, , 
19.02, 0.088573, , 
19.05, 0.088253, , 
19.08, 0.087945, , 
19.11, 0.087634, , 
19.14, 0.087308, , 
19.18, 0.087009, , 
19.20, 0.086749, , 
19.23, 0.086464, , 
19.26, 0.086140, , 
19.29, 0.085817, , 
19.32, 0.085515, , 
19.35, 0.085141, , 
19.38, 0.084773, , 
19.41, 0.084516, , 
19.44, 0.084161, , 
19.47, 0.083847, , 
19.50, 0.083501, , 
19.53, 0.083219, , 
19.56, 0.082908, , 
19.59, 0.082489, , 
19.62, 0.082131, , 
19.65, 0.081849, , 
19.68, 0.081544, , 
19.71, 0.081335, , 
19.74, 0.081078, , 
19.77, 0.080764, , 
19.80, 0.080459, , 
19.83, 0.080145, , 
19.86, 0.079898, , 
19.89, 0.079689, , 
19.92, 0.079451, , 
19.96, 0.079267, , 
19.98, 0.079127, , 
20.01, 0.078940, , 
20.04, 0.078788, , 
20.07, 0.078639, , 
20.10, 0.078480, , 
20.13, 0.078337, , 
20.16, 0.078144, , 
20.19, 0.077887, , 
20.22, 0.077630, , 
20.25, 0.077414, , 
20.28, 0.077227, , 
20.31, 0.076942, , 
20.34, 0.076780, , 
20.37, 0.076656, , 
20.40, 0.076472, , 
20.43, 0.076276, , 
20.46, 0.076031, , 
20.49, 0.075857, , 
20.52, 0.075701, , 
20.55, 0.075530, , 
20.57, 0.075419, 6, 0.586
20.58, 0.075359, , 
20.61, 0.075229, , 
20.64, 0.075153, , 
20.67, 0.075051, , 
20.70, 0.074893, , 
20.73, 0.074763, , 
20.76, 0.074667, , 
20.79, 0.074626, , 
20.82, 0.074563, , 
20.85, 0.074544, , 
20.88, 0.074445, , 
20.91, 0.074315, , 
20.94, 0.074223, , 
20.98, 0.074147, , 
21.00, 0.074090, , 
21.03, 0.074065, , 
21.06, 0.074008, , 
21.09, 0.073874, , 
21.12, 0.073767, , 
21.15, 0.073649, , 
21.18, 0.073579, , 
21.21, 0.073564, , 
21.25, 0.073468, , 
21.27, 0.073367, , 
21.30, 0.073224, , 
21.33, 0.073085, , 
21.36, 0.072935, , 
21.39, 0.072751, , 
21.42, 0.072631, , 
21.45, 0.072587, , 
21.48, 0.072463, , 
21.51, 0.072314, , 
21.54, 0.072209, , 
21.57, 0.072136, , 
21.60, 0.071990, , 
21.63, 0.071825, , 
21.66, 0.071727, , 
21.69, 0.071638, , 
21.72, 0.071559, , 
21.75, 0.071372, , 
21.78, 0.071226, , 
21.81, 0.071166, , 
21.84, 0.071089, , 
21.87, 0.070950, , 
21.90, 0.070775, , 
21.93, 0.070702, , 
21.96, 0.070598, , 
21.99, 0.070471, , 
22.02, 0.070325, , 
22.05, 0.070189, , 
22.08, 0.070062, , 
22.11, 0.069900, , 
22.14, 0.069694, , 
22.17, 0.069570, , 
22.20, 0.069411, , 
22.23, 0.069259, , 
22.26, 0.069155, , 
22.29, 0.069009, , 
22.32, 0.068837, , 
22.35, 0.068688, , 
22.38, 0.068536, , 
22.41, 0.068371, , 
22.44, 0.068197, , 
22.47, 0.068076, , 
22.50, 0.067905, , 
22.53, 0.067756, , 
22.56, 0.067667, , 
22.59, 0.067578, , 
22.62, 0.067521, , 
22.65, 0.067410, , 
22.69, 0.067289, , 
22.71, 0.067178, , 
22.74, 0.067118, , 
22.77, 0.067096, , 
22.80, 0.067052, , 
22.83, 0.067052, , 
22.86, 0.067036, , 
22.89, 0.067061, , 
22.92, 0.067153, , 
22.95, 0.067289, , 
22.98, 0.067381, , 
23.01, 0.067473, , 
23.04, 0.067511, , 
23.07, 0.067578, , 
23.10, 0.067733, , 
23.13, 0.067876, , 
23.16, 0.067965, , 
23.19, 0.068124, , 
23.22, 0.068301, , 
23.25, 0.068549, , 
23.28, 0.068904, , 
23.31, 0.069164, , 
23.34, 0.069430, , 
23.37, 0.069738, , 
23.40, 0.070078, , 
23.43, 0.070528, , 
23.46, 0.070985, , 
23.49, 0.071422, , 
23.52, 0.071901, , 
23.55, 0.072317, , 
23.58, 0.072751, , 
23.61, 0.073243, , 
23.64, 0.073782, , 
23.67, 0.074395, , 
23.70, 0.074953, , 
23.73, 0.075622, , 
23.76, 0.076123, , 
23.77, 0.076326, 7, 0.586
23.79, 0.076745, , 
23.82, 0.077506, , 
23.85, 0.078179, , 
23.88, 0.078978, , 
23.91, 0.079685, , 
23.94, 0.080374, , 
23.97, 0.081091, , 
24.00, 0.081760, , 
24.03, 0.082534, , 
24.06, 0.083282, , 
24.09, 0.084006, , 
24.12, 0.084805, , 
24.15, 0.085461, , 
24.18, 0.086121, , 
24.21, 0.086819, , 
24.24, 0.087549, , 
24.27, 0.088370, , 
24.30, 0.089074, , 
24.33, 0.089817, , 
24.36, 0.090403, , 
24.39, 0.090895, , 
24.42, 0.091631, , 
24.45, 0.092202, , 
24.48, 0.092877, , 
24.51, 0.093467, , 
24.54, 0.094045, , 
24.57, 0.094654, , 
24.60, 0.095053, , 
24.63, 0.095589, , 
24.66, 0.096037, , 
24.69, 0.096468, , 
24.72, 0.096849, , 
24.75, 0.097175, , 
24.78, 0.097512, , 
24.81, 0.097870, , 
24.84, 0.098140, , 
24.87, 0.098403, , 
24.90, 0.098581, , 
24.93, 0.098717, , 
24.96, 0.098891, , 
24.99, 0.099037, , 
25.02, 0.099161, , 
25.05, 0.099224, , 
25.08, 0.099263, , 
25.11, 0.099250, , 
25.14, 0.099269, , 
25.17, 0.099304, , 
25.20, 0.099228, , 
25.23, 0.099088, , 
25.26, 0.098980, , 
25.29, 0.098876, , 
25.32, 0.098698, , 
25.35, 0.098495, , 
25.38, 0.098267, , 
25.41, 0.098079, , 
25.44, 0.097861, , 
25.47, 0.097613, , 
25.50, 0.097375, , 
25.53, 0.097112, , 
25.56, 0.096773, , 
25.59, 0.096516, , 
25.62, 0.096179, , 
25.65, 0.095916, , 
25.68, 0.095539, , 
25.71, 0.095171, , 
25.74, 0.094879, , 
25.77, 0.094492, , 
25.80, 0.094118, , 
25.83, 0.093715, , 
25.86, 0.093277, , 
25.89, 0.092865, , 
25.92, 0.092376, , 
25.95, 0.091948, , 
25.98, 0.091577, , 
26.01, 0.091025, , 
26.04, 0.090562, , 
26.07, 0.090131, , 
26.10, 0.089721, , 
26.13, 0.089293, , 
26.16, 0.088738, , 
26.19, 0.088278, , 
26.22, 0.087780, , 
26.25, 0.087149, , 
26.28, 0.086584, , 
26.31, 0.086070, , 
26.34, 0.085604, , 
26.37, 0.085166, , 
26.40, 0.084637, , 
26.43, 0.084117, , 
26.46, 0.083492, , 
26.49, 0.083060, , 
26.52, 0.082546, , 
26.55, 0.081941, , 
26.58, 0.081525, , 
26.61, 0.080995, , 
26.64, 0.080539, , 
26.67, 0.080101, , 
26.70, 0.079625, , 
26.73, 0.079070, , 
26.76, 0.078398, , 
26.79, 0.077871, , 
26.82, 0.077395, , 
26.85, 0.076865, , 
26.88, 0.076412, , 
26.91, 0.075961, , 
26.94, 0.075514, , 
26.97, 0.075096, 8, 0.585
26.97, 0.075019, , 
27.00, 0.074588, , 
27.03, 0.074150, , 
27.06, 0.073617, , 
27.09, 0.073053, , 
27.12, 0.072590, , 
27.15, 0.071990, , 
27.18, 0.071622, , 
27.21, 0.071207, , 
27.24, 0.070836, , 
27.27, 0.070449, , 
27.30, 0.069989, , 
27.33, 0.069656, , 
27.36, 0.069142, , 
27.39, 0.068768, , 
27.42, 0.068469, , 
27.45, 0.068117, , 
27.48, 0.067740, , 
27.52, 0.067296, , 
27.54, 0.067039, , 
27.57, 0.066750, , 
27.60, 0.066474, , 
27.63, 0.066227, , 
27.66, 0.065970, , 
27.69, 0.065745, , 
27.73, 0.065519, , 
27.75, 0.065320, , 
27.78, 0.065117, , 
27.81, 0.064860, , 
27.84, 0.064622, , 
27.87, 0.064425, , 
27.90, 0.064292, , 
27.93, 0.064216, , 
27.96, 0.064060, , 
27.99, 0.063892, , 
28.02, 0.063788, , 
28.05, 0.063705, , 
28.08, 0.063670, , 
28.11, 0.063648, , 
28.14, 0.063626, , 
28.17, 0.063540, , 
28.20, 0.063493, , 
28.23, 0.063512, , 
28.26, 0.063585, , 
28.29, 0.063581, , 
28.32, 0.063610, , 
28.35, 0.063670, , 
28.38, 0.063822, , 
28.41, 0.064010, , 
28.44, 0.064194, , 
28.47, 0.064400, , 
28.50, 0.064730, , 
28.53, 0.065006, , 
28.56, 0.065209, , 
28.59, 0.065535, , 
28.62, 0.065849, , 
28.65, 0.066290, , 
28.68, 0.066760, , 
28.71, 0.067305, , 
28.74, 0.068006, , 
28.77, 0.068526, , 
28.80, 0.069266, , 
28.83, 0.069995, , 
28.86, 0.071016, , 
28.89, 0.071978, , 
28.92, 0.073008, , 
28.95, 0.074284, , 
28.98, 0.075283, , 
29.01, 0.076586, , 
29.04, 0.078236, , 
