Gradient Profiler Text Data File: 20231116_MV_A_40C.csv
Date: 2023-11-16
Time: 18:18:30

User: jared
Experiment name: 20231116_BY4742_30
UV Unit: EM-1
Rotor Manufacturer: Beckman
Rotor Model: SW28.1
Speed: 28 rpm
Gradient: sucrose 10.0% to 50.0% w/v
Time: 4
w2t:  x 10^0
Sample Volume: 18 ml
Number of Tubes: 6
Volume per mm: 0.183 ml/mm

Absorbance Units Full Scale (AUFS): 2.00
Event Mark-triggered gradient; (with distance; auto start and stop)
Delay: No Delay
UV Wavelength: 254 nm
Samples / sec: 10 Hz
EM1 Speed: 0.30 mm/sec
Distance: 3.20 mm
Number: 30
Dead Volume: 0.000000 ml; Distance due to Dead Volume: 0.00 mm
Total Distance: 96.00 mm

Data Columns:
Distance(mm), Absorbance, Fraction Number, Fraction Volume(ml)
0.00, 0.082550, 0, 0.000
0.03, 0.082562, , 
0.06, 0.082556, , 
0.09, 0.082546, , 
0.12, 0.082540, , 
0.15, 0.082556, , 
0.18, 0.082553, , 
0.21, 0.082540, , 
0.24, 0.082515, , 
0.27, 0.082572, , 
0.30, 0.082699, , 
0.33, 0.082860, , 
0.36, 0.082927, , 
0.39, 0.083022, , 
0.42, 0.083187, , 
0.45, 0.083305, , 
0.48, 0.083450, , 
0.51, 0.083603, , 
0.54, 0.083948, , 
0.57, 0.084982, , 
0.60, 0.089236, , 
0.63, 0.104277, , 
0.66, 0.134306, , 
0.69, 0.196961, , 
0.72, 0.271403, , 
0.75, 0.358860, , 
0.78, 0.454091, , 
0.81, 0.553728, , 
0.84, 0.673094, , 
0.87, 0.776578, , 
0.90, 0.880796, , 
0.93, 1.003004, , 
0.96, 1.108081, , 
0.99, 1.213370, , 
1.02, 1.318929, , 
1.05, 1.424278, , 
1.08, 1.547054, , 
1.11, 1.650726, , 
1.14, 1.749849, , 
1.17, 1.851950, , 
1.20, 1.919430, , 
1.23, 1.965670, , 
1.26, 1.994484, , 
1.29, 2.011295, , 
1.32, 2.021782, , 
1.35, 2.026419, , 
1.38, 2.029277, , 
1.42, 2.030596, , 
1.44, 2.031301, , 
1.47, 2.031894, , 
1.50, 2.032211, , 
1.53, 2.032544, , 
1.56, 2.032760, , 
1.59, 2.032874, , 
1.62, 2.032960, , 
1.65, 2.033074, , 
1.69, 2.033172, , 
1.71, 2.033232, , 
1.74, 2.033255, , 
1.77, 2.033315, , 
1.80, 2.033388, , 
1.83, 2.033477, , 
1.86, 2.033502, , 
1.89, 2.033540, , 
1.92, 2.033591, , 
1.95, 2.033610, , 
1.98, 2.033642, , 
2.01, 2.033657, , 
2.05, 2.033721, , 
2.07, 2.033762, , 
2.10, 2.033794, , 
2.13, 2.033841, , 
2.16, 2.033848, , 
2.19, 2.033826, , 
2.22, 2.033794, , 
2.25, 2.033829, , 
2.28, 2.033876, , 
2.31, 2.033908, , 
2.34, 2.033883, , 
2.37, 2.033895, , 
2.40, 2.033943, , 
2.43, 2.033924, , 
2.46, 2.033917, , 
2.49, 2.033949, , 
2.52, 2.033997, , 
2.55, 2.034029, , 
2.58, 2.034044, , 
2.61, 2.034067, , 
2.64, 2.034082, , 
2.67, 2.034063, , 
2.70, 2.034054, , 
2.73, 2.034067, , 
2.76, 2.034070, , 
2.79, 2.034086, , 
2.82, 2.034082, , 
2.85, 2.034095, , 
2.88, 2.034098, , 
2.91, 2.034111, , 
2.94, 2.034101, , 
2.97, 2.034095, , 
3.00, 2.034121, , 
3.03, 2.034127, , 
3.06, 2.034124, , 
3.09, 2.034133, , 
3.12, 2.034114, , 
3.15, 2.034149, , 
3.18, 2.034168, , 
3.19, 2.034152, 1, 0.584
3.21, 2.034155, , 
3.24, 2.033997, , 
3.27, 2.033584, , 
3.30, 2.032807, , 
3.33, 2.031624, , 
3.36, 2.029664, , 
3.39, 2.027383, , 
3.42, 2.023932, , 
3.45, 2.020265, , 
3.48, 2.015907, , 
3.51, 2.010984, , 
3.54, 2.005430, , 
3.57, 1.998173, , 
3.60, 1.991188, , 
3.63, 1.983560, , 
3.66, 1.973860, , 
3.69, 1.966463, , 
3.72, 1.955377, , 
3.75, 1.945151, , 
3.78, 1.934423, , 
3.81, 1.921371, , 
3.84, 1.909850, , 
3.87, 1.896141, , 
3.90, 1.886194, , 
3.93, 1.874207, , 
3.96, 1.860216, , 
3.99, 1.848179, , 
4.02, 1.836116, , 
4.05, 1.821813, , 
4.08, 1.809440, , 
4.11, 1.796920, , 
4.14, 1.782272, , 
4.17, 1.769676, , 
4.20, 1.756903, , 
4.23, 1.744111, , 
4.26, 1.731248, , 
4.29, 1.716270, , 
4.32, 1.703373, , 
4.35, 1.688421, , 
4.38, 1.675647, , 
4.41, 1.664904, , 
4.44, 1.649755, , 
4.47, 1.636725, , 
4.50, 1.621553, , 
4.53, 1.608583, , 
4.56, 1.595686, , 
4.59, 1.580765, , 
4.62, 1.570158, , 
4.65, 1.555501, , 
4.68, 1.542969, , 
4.71, 1.530484, , 
4.74, 1.516061, , 
4.77, 1.503767, , 
4.80, 1.491491, , 
4.83, 1.479260, , 
4.86, 1.467052, , 
4.89, 1.452882, , 
4.92, 1.440820, , 
4.95, 1.426873, , 
4.98, 1.414972, , 
5.01, 1.405037, , 
5.04, 1.391100, , 
5.07, 1.379208, , 
5.10, 1.365410, , 
5.13, 1.353721, , 
5.16, 1.342014, , 
5.20, 1.328479, , 
5.22, 1.318881, , 
5.25, 1.305419, , 
5.28, 1.293880, , 
5.31, 1.282404, , 
5.34, 1.269072, , 
5.37, 1.257682, , 
5.41, 1.244512, , 
5.43, 1.235174, , 
5.46, 1.224012, , 
5.49, 1.211007, , 
5.52, 1.199940, , 
5.55, 1.188968, , 
5.58, 1.176315, , 
5.61, 1.165556, , 
5.64, 1.154870, , 
5.67, 1.144206, , 
5.70, 1.133557, , 
5.73, 1.121174, , 
5.76, 1.110618, , 
5.79, 1.098419, , 
5.82, 1.088031, , 
5.85, 1.079403, , 
5.88, 1.067397, , 
5.91, 1.057291, , 
5.94, 1.045571, , 
5.97, 1.035570, , 
6.00, 1.025651, , 
6.03, 1.014252, , 
6.06, 1.006182, , 
6.09, 0.994912, , 
6.12, 0.985292, , 
6.15, 0.974247, , 
6.18, 0.964836, , 
6.21, 0.957071, , 
6.24, 0.946264, , 
6.27, 0.937094, , 
6.30, 0.928010, , 
6.33, 0.917444, , 
6.36, 0.908369, , 
6.38, 0.902336, 2, 0.584
6.39, 0.897841, , 
6.42, 0.888887, , 
6.45, 0.881531, , 
6.48, 0.871292, , 
6.51, 0.862658, , 
6.54, 0.852724, , 
6.57, 0.844264, , 
6.60, 0.835878, , 
6.63, 0.826216, , 
6.66, 0.819276, , 
6.69, 0.809598, , 
6.72, 0.801450, , 
6.75, 0.793380, , 
6.78, 0.784045, , 
6.81, 0.776128, , 
6.84, 0.767059, , 
6.87, 0.760757, , 
6.90, 0.753296, , 
6.93, 0.744659, , 
6.96, 0.737310, , 
6.99, 0.728809, , 
7.02, 0.721555, , 
7.05, 0.714389, , 
7.08, 0.707364, , 
7.11, 0.700465, , 
7.14, 0.692446, , 
7.17, 0.685598, , 
7.20, 0.678848, , 
7.23, 0.671013, , 
7.26, 0.664359, , 
7.29, 0.657745, , 
7.32, 0.651154, , 
7.35, 0.644578, , 
7.38, 0.636985, , 
7.41, 0.630552, , 
7.44, 0.623069, , 
7.48, 0.616697, , 
7.50, 0.611400, , 
7.53, 0.604070, , 
7.56, 0.597837, , 
7.59, 0.590573, , 
7.62, 0.584391, , 
7.65, 0.578275, , 
7.68, 0.572255, , 
7.71, 0.566279, , 
7.74, 0.559412, , 
7.77, 0.553607, , 
7.80, 0.547987, , 
7.83, 0.541433, , 
7.86, 0.535914, , 
7.89, 0.530487, , 
7.92, 0.525171, , 
7.95, 0.519950, , 
7.98, 0.513933, , 
8.01, 0.508801, , 
8.04, 0.502821, , 
8.07, 0.497734, , 
8.10, 0.493455, , 
8.13, 0.487488, , 
8.16, 0.482445, , 
8.19, 0.476624, , 
8.22, 0.471689, , 
8.25, 0.466817, , 
8.28, 0.461209, , 
8.31, 0.457206, , 
8.34, 0.451576, , 
8.37, 0.446840, , 
8.40, 0.442174, , 
8.43, 0.436766, , 
8.46, 0.432240, , 
8.49, 0.427123, , 
8.52, 0.423491, , 
8.55, 0.419149, , 
8.58, 0.414106, , 
8.61, 0.409862, , 
8.64, 0.404967, , 
8.67, 0.400863, , 
8.70, 0.396790, , 
8.73, 0.392765, , 
8.76, 0.388781, , 
8.79, 0.384264, , 
8.82, 0.380439, , 
8.85, 0.376686, , 
8.88, 0.372312, , 
8.91, 0.368617, , 
8.94, 0.364982, , 
8.97, 0.361394, , 
9.00, 0.357855, , 
9.03, 0.353728, , 
9.06, 0.350210, , 
9.09, 0.346696, , 
9.12, 0.342674, , 
9.15, 0.339889, , 
9.18, 0.336076, , 
9.21, 0.332774, , 
9.24, 0.329447, , 
9.27, 0.325545, , 
9.30, 0.322307, , 
9.33, 0.318662, , 
9.36, 0.316071, , 
9.39, 0.312959, , 
9.42, 0.309381, , 
9.45, 0.306358, , 
9.48, 0.303291, , 
9.51, 0.299732, , 
9.54, 0.296785, , 
9.57, 0.293880, , 
9.59, 0.292437, 3, 0.587
9.60, 0.291006, , 
9.63, 0.287783, , 
9.66, 0.285084, , 
9.69, 0.282413, , 
9.72, 0.279330, , 
9.75, 0.277186, , 
9.78, 0.274261, , 
9.81, 0.271803, , 
9.84, 0.269345, , 
9.88, 0.266481, , 
9.90, 0.264114, , 
9.93, 0.261444, , 
9.96, 0.259563, , 
9.99, 0.257320, , 
10.02, 0.254722, , 
10.05, 0.252454, , 
10.08, 0.249758, , 
10.11, 0.247547, , 
10.14, 0.245425, , 
10.17, 0.243313, , 
10.20, 0.241191, , 
10.23, 0.238660, , 
10.26, 0.236474, , 
10.29, 0.234343, , 
10.32, 0.231910, , 
10.35, 0.229832, , 
10.38, 0.227764, , 
10.41, 0.225740, , 
10.44, 0.223796, , 
10.47, 0.221518, , 
10.50, 0.219587, , 
10.53, 0.217373, , 
10.56, 0.215527, , 
10.59, 0.214033, , 
10.62, 0.211999, , 
10.65, 0.210341, , 
10.68, 0.208456, , 
10.71, 0.206867, , 
10.74, 0.205281, , 
10.77, 0.203683, , 
10.80, 0.202068, , 
10.83, 0.200285, , 
10.86, 0.198858, , 
10.89, 0.197215, , 
10.92, 0.195724, , 
10.95, 0.194455, , 
10.98, 0.192698, , 
11.01, 0.191198, , 
11.04, 0.189415, , 
11.07, 0.187899, , 
11.10, 0.186446, , 
11.13, 0.184835, , 
11.16, 0.183712, , 
11.19, 0.182174, , 
11.22, 0.180854, , 
11.25, 0.179532, , 
11.28, 0.177971, , 
11.31, 0.176664, , 
11.34, 0.175132, , 
11.37, 0.174038, , 
11.40, 0.172706, , 
11.43, 0.171196, , 
11.46, 0.169971, , 
11.49, 0.168566, , 
11.52, 0.167364, , 
11.55, 0.166387, , 
11.58, 0.165058, , 
11.61, 0.163916, , 
11.64, 0.162638, , 
11.67, 0.161543, , 
11.70, 0.160494, , 
11.73, 0.159282, , 
11.76, 0.158368, , 
11.79, 0.157169, , 
11.82, 0.156186, , 
11.85, 0.155228, , 
11.88, 0.154150, , 
11.91, 0.153252, , 
11.94, 0.152224, , 
11.97, 0.151444, , 
12.00, 0.150492, , 
12.03, 0.149465, , 
12.06, 0.148627, , 
12.09, 0.147657, , 
12.12, 0.146934, , 
12.15, 0.145941, , 
12.18, 0.145065, , 
12.21, 0.144044, , 
12.24, 0.143159, , 
12.27, 0.142296, , 
12.30, 0.141402, , 
12.33, 0.140498, , 
12.36, 0.139495, , 
12.39, 0.138677, , 
12.42, 0.137919, , 
12.45, 0.137164, , 
12.48, 0.136235, , 
12.51, 0.135442, , 
12.54, 0.134538, , 
12.57, 0.133922, , 
12.60, 0.133243, , 
12.63, 0.132444, , 
12.66, 0.131791, , 
12.69, 0.131096, , 
12.72, 0.130497, , 
12.75, 0.129913, , 
12.78, 0.129317, 4, 0.585
12.79, 0.129215, , 
12.81, 0.128727, , 
12.84, 0.128013, , 
12.87, 0.127398, , 
12.90, 0.126747, , 
12.93, 0.125967, , 
12.96, 0.125339, , 
12.99, 0.124714, , 
13.02, 0.124108, , 
13.05, 0.123579, , 
13.08, 0.122951, , 
13.11, 0.122351, , 
13.14, 0.121666, , 
13.17, 0.121123, , 
13.20, 0.120641, , 
13.23, 0.119934, , 
13.26, 0.119382, , 
13.29, 0.118773, , 
13.32, 0.118228, , 
13.35, 0.117653, , 
13.38, 0.117009, , 
13.41, 0.116581, , 
13.44, 0.116026, , 
13.47, 0.115639, , 
13.50, 0.115313, , 
13.53, 0.114900, , 
13.56, 0.114542, , 
13.59, 0.114117, , 
13.62, 0.113771, , 
13.65, 0.113340, , 
13.68, 0.112835, , 
13.71, 0.112480, , 
13.74, 0.112125, , 
13.77, 0.111785, , 
13.80, 0.111417, , 
13.83, 0.111043, , 
13.86, 0.110650, , 
13.89, 0.110130, , 
13.92, 0.109708, , 
13.95, 0.109365, , 
13.98, 0.108994, , 
14.01, 0.108655, , 
14.04, 0.108369, , 
14.07, 0.108109, , 
14.10, 0.107789, , 
14.13, 0.107380, , 
14.16, 0.107037, , 
14.19, 0.106736, , 
14.22, 0.106580, , 
14.25, 0.106396, , 
14.28, 0.106161, , 
14.31, 0.105943, , 
14.34, 0.105727, , 
14.37, 0.105578, , 
14.40, 0.105419, , 
14.43, 0.105251, , 
14.46, 0.105083, , 
14.49, 0.104982, , 
14.52, 0.104959, , 
14.55, 0.104924, , 
14.58, 0.104782, , 
14.61, 0.104648, , 
14.64, 0.104537, , 
14.67, 0.104468, , 
14.70, 0.104388, , 
14.73, 0.104388, , 
14.76, 0.104417, , 
14.79, 0.104388, , 
14.82, 0.104373, , 
14.85, 0.104350, , 
14.88, 0.104373, , 
14.91, 0.104430, , 
14.94, 0.104537, , 
14.97, 0.104677, , 
15.00, 0.104782, , 
15.03, 0.104829, , 
15.06, 0.104836, , 
15.09, 0.104845, , 
15.12, 0.104855, , 
15.15, 0.104924, , 
15.18, 0.105045, , 
15.21, 0.105191, , 
15.24, 0.105327, , 
15.27, 0.105492, , 
15.30, 0.105641, , 
15.33, 0.105797, , 
15.36, 0.105952, , 
15.39, 0.106117, , 
15.43, 0.106241, , 
15.45, 0.106345, , 
15.48, 0.106580, , 
15.51, 0.106726, , 
15.54, 0.106853, , 
15.57, 0.107024, , 
15.60, 0.107234, , 
15.63, 0.107427, , 
15.66, 0.107576, , 
15.69, 0.107722, , 
15.72, 0.107814, , 
15.75, 0.107827, , 
15.78, 0.107827, , 
15.81, 0.107852, , 
15.84, 0.107855, , 
15.87, 0.107839, , 
15.90, 0.107833, , 
15.93, 0.107839, , 
15.96, 0.107865, , 
15.99, 0.107836, 5, 0.586
15.99, 0.107814, , 
16.02, 0.107738, , 
16.05, 0.107608, , 
16.08, 0.107513, , 
16.11, 0.107405, , 
16.14, 0.107268, , 
16.17, 0.107154, , 
16.20, 0.107031, , 
16.23, 0.106932, , 
16.26, 0.106831, , 
16.29, 0.106717, , 
16.32, 0.106583, , 
16.35, 0.106441, , 
16.38, 0.106276, , 
16.41, 0.106101, , 
16.44, 0.105889, , 
16.47, 0.105676, , 
16.50, 0.105448, , 
16.53, 0.105213, , 
16.56, 0.105074, , 
16.59, 0.104890, , 
16.62, 0.104661, , 
16.65, 0.104411, , 
16.68, 0.104176, , 
16.71, 0.103862, , 
16.74, 0.103551, , 
16.77, 0.103240, , 
16.80, 0.102955, , 
16.83, 0.102590, , 
16.86, 0.102216, , 
16.89, 0.101924, , 
16.92, 0.101584, , 
16.95, 0.101274, , 
16.98, 0.100864, , 
17.01, 0.100481, , 
17.04, 0.100109, , 
17.07, 0.099713, , 
17.10, 0.099466, , 
17.13, 0.099085, , 
17.16, 0.098707, , 
17.19, 0.098308, , 
17.22, 0.097899, , 
17.25, 0.097597, , 
17.29, 0.097239, , 
17.31, 0.096909, , 
17.34, 0.096455, , 
17.37, 0.096002, , 
17.40, 0.095650, , 
17.43, 0.095275, , 
17.46, 0.094968, , 
17.49, 0.094717, , 
17.52, 0.094289, , 
17.55, 0.093937, , 
17.58, 0.093585, , 
17.61, 0.093261, , 
17.64, 0.092887, , 
17.67, 0.092389, , 
17.70, 0.092050, , 
17.73, 0.091618, , 
17.76, 0.091317, , 
17.79, 0.090984, , 
17.82, 0.090575, , 
17.85, 0.090191, , 
17.88, 0.089715, , 
17.91, 0.089366, , 
17.94, 0.088992, , 
17.97, 0.088649, , 
18.00, 0.088342, , 
18.03, 0.087913, , 
18.06, 0.087564, , 
18.09, 0.087273, , 
18.12, 0.086968, , 
18.15, 0.086657, , 
18.18, 0.086334, , 
18.21, 0.086083, , 
18.24, 0.085794, , 
18.28, 0.085522, , 
18.30, 0.085309, , 
18.33, 0.084982, , 
18.36, 0.084745, , 
18.39, 0.084538, , 
18.42, 0.084380, , 
18.45, 0.084186, , 
18.48, 0.083980, , 
18.51, 0.083774, , 
18.54, 0.083511, , 
18.57, 0.083305, , 
18.60, 0.083079, , 
18.63, 0.082807, , 
18.66, 0.082565, , 
18.69, 0.082375, , 
18.72, 0.082169, , 
18.75, 0.081925, , 
18.78, 0.081677, , 
18.81, 0.081500, , 
18.84, 0.081230, , 
18.87, 0.080973, , 
18.90, 0.080815, , 
18.93, 0.080653, , 
18.96, 0.080485, , 
18.99, 0.080282, , 
19.02, 0.080152, , 
19.05, 0.080047, , 
19.08, 0.079831, , 
19.11, 0.079717, , 
19.14, 0.079644, , 
19.17, 0.079562, , 
19.19, 0.079505, 6, 0.586
19.20, 0.079441, , 
19.23, 0.079283, , 
19.26, 0.079178, , 
19.29, 0.079089, , 
19.32, 0.078956, , 
19.35, 0.078807, , 
19.38, 0.078667, , 
19.41, 0.078594, , 
19.44, 0.078553, , 
19.47, 0.078524, , 
19.50, 0.078470, , 
19.53, 0.078347, , 
19.56, 0.078229, , 
19.59, 0.078137, , 
19.62, 0.078064, , 
19.65, 0.077953, , 
19.68, 0.077769, , 
19.71, 0.077649, , 
19.74, 0.077576, , 
19.77, 0.077528, , 
19.80, 0.077452, , 
19.83, 0.077316, , 
19.86, 0.077192, , 
19.89, 0.077103, , 
19.93, 0.077002, , 
19.95, 0.076897, , 
19.98, 0.076767, , 
20.01, 0.076672, , 
20.04, 0.076561, , 
20.07, 0.076434, , 
20.10, 0.076310, , 
20.13, 0.076196, , 
20.16, 0.076114, , 
20.19, 0.075987, , 
20.22, 0.075866, , 
20.25, 0.075758, , 
20.28, 0.075609, , 
20.31, 0.075444, , 
20.34, 0.075327, , 
20.37, 0.075207, , 
20.40, 0.075121, , 
20.43, 0.074994, , 
20.46, 0.074845, , 
20.49, 0.074712, , 
20.52, 0.074585, , 
20.55, 0.074448, , 
20.58, 0.074284, , 
20.61, 0.074179, , 
20.64, 0.073998, , 
20.67, 0.073798, , 
20.70, 0.073595, , 
20.73, 0.073402, , 
20.76, 0.073249, , 
20.79, 0.073129, , 
20.82, 0.072904, , 
20.85, 0.072713, , 
20.88, 0.072450, , 
20.91, 0.072288, , 
20.94, 0.072206, , 
20.97, 0.072009, , 
21.00, 0.071857, , 
21.03, 0.071717, , 
21.06, 0.071537, , 
21.09, 0.071372, , 
21.12, 0.071238, , 
21.15, 0.071153, , 
21.18, 0.071061, , 
21.21, 0.070877, , 
21.24, 0.070760, , 
21.27, 0.070696, , 
21.30, 0.070633, , 
21.33, 0.070629, , 
21.36, 0.070610, , 
21.39, 0.070598, , 
21.42, 0.070585, , 
21.45, 0.070610, , 
21.48, 0.070620, , 
21.51, 0.070610, , 
21.54, 0.070649, , 
21.57, 0.070626, , 
21.60, 0.070585, , 
21.63, 0.070601, , 
21.66, 0.070617, , 
21.69, 0.070607, , 
21.73, 0.070649, , 
21.75, 0.070725, , 
21.78, 0.070883, , 
21.81, 0.071013, , 
21.84, 0.071175, , 
21.87, 0.071330, , 
21.90, 0.071530, , 
21.94, 0.071825, , 
21.96, 0.072108, , 
21.99, 0.072501, , 
22.02, 0.072809, , 
22.05, 0.073145, , 
22.08, 0.073503, , 
22.11, 0.073890, , 
22.14, 0.074318, , 
22.17, 0.074756, , 
22.20, 0.075238, , 
22.23, 0.075882, , 
22.26, 0.076459, , 
22.29, 0.077049, , 
22.32, 0.077532, , 
22.35, 0.077995, , 
22.38, 0.078702, , 
22.39, 0.078807, 7, 0.586
22.41, 0.079333, , 
22.44, 0.080060, , 
22.47, 0.080738, , 
22.50, 0.081389, , 
22.53, 0.082156, , 
22.56, 0.082667, , 
22.59, 0.083425, , 
22.62, 0.084136, , 
22.65, 0.084827, , 
22.68, 0.085591, , 
22.71, 0.086280, , 
22.74, 0.087076, , 
22.77, 0.087666, , 
22.80, 0.088386, , 
22.83, 0.089198, , 
22.86, 0.089921, , 
22.89, 0.090682, , 
22.92, 0.091336, , 
22.95, 0.091989, , 
22.98, 0.092671, , 
23.01, 0.093331, , 
23.04, 0.094054, , 
23.07, 0.094717, , 
23.10, 0.095367, , 
23.13, 0.095992, , 
23.16, 0.096411, , 
23.19, 0.097102, , 
23.22, 0.097680, , 
23.25, 0.098225, , 
23.28, 0.098787, , 
23.31, 0.099202, , 
23.34, 0.099605, , 
23.37, 0.099872, , 
23.40, 0.100205, , 
23.43, 0.100607, , 
23.46, 0.100928, , 
23.49, 0.101270, , 
23.52, 0.101496, , 
23.55, 0.101727, , 
23.58, 0.101936, , 
23.61, 0.102063, , 
23.64, 0.102168, , 
23.67, 0.102216, , 
23.70, 0.102225, , 
23.73, 0.102231, , 
23.76, 0.102225, , 
23.79, 0.102222, , 
23.82, 0.102235, , 
23.85, 0.102247, , 
23.88, 0.102212, , 
23.91, 0.102111, , 
23.94, 0.101978, , 
23.98, 0.101838, , 
24.00, 0.101718, , 
24.03, 0.101521, , 
24.06, 0.101334, , 
24.09, 0.101128, , 
24.12, 0.100899, , 
24.15, 0.100642, , 
24.18, 0.100363, , 
24.21, 0.100078, , 
24.24, 0.099761, , 
24.27, 0.099440, , 
24.30, 0.099101, , 
24.33, 0.098720, , 
24.36, 0.098416, , 
24.39, 0.098108, , 
24.42, 0.097759, , 
24.45, 0.097372, , 
24.48, 0.096887, , 
24.51, 0.096446, , 
24.54, 0.095964, , 
24.57, 0.095529, , 
24.60, 0.095155, , 
24.63, 0.094663, , 
24.66, 0.094168, , 
24.69, 0.093499, , 
24.72, 0.092931, , 
24.75, 0.092398, , 
24.78, 0.091869, , 
24.81, 0.091494, , 
24.84, 0.090987, , 
24.87, 0.090495, , 
24.90, 0.089969, , 
24.93, 0.089331, , 
24.96, 0.088782, , 
25.00, 0.088212, , 
25.02, 0.087853, , 
25.05, 0.087393, , 
25.08, 0.086819, , 
25.11, 0.086223, , 
25.14, 0.085611, , 
25.17, 0.085093, , 
25.21, 0.084580, , 
25.23, 0.083986, , 
25.26, 0.083419, , 
25.29, 0.082816, , 
25.32, 0.082305, , 
25.35, 0.081738, , 
25.38, 0.081097, , 
25.41, 0.080700, , 
25.44, 0.080041, , 
25.47, 0.079517, , 
25.50, 0.078978, , 
25.53, 0.078296, , 
25.56, 0.077738, , 
25.58, 0.077351, 8, 0.585
25.59, 0.077195, , 
25.62, 0.076824, , 
25.65, 0.076380, , 
25.68, 0.075841, , 
25.71, 0.075330, , 
25.74, 0.074683, , 
25.77, 0.074122, , 
25.80, 0.073608, , 
25.83, 0.073180, , 
25.86, 0.072853, , 
25.89, 0.072469, , 
25.92, 0.072114, , 
25.95, 0.071727, , 
25.98, 0.071242, , 
26.01, 0.070820, , 
26.04, 0.070373, , 
26.07, 0.069973, , 
26.10, 0.069624, , 
26.13, 0.069285, , 
26.16, 0.068986, , 
26.19, 0.068618, , 
26.22, 0.068393, , 
26.25, 0.068076, , 
26.28, 0.067714, , 
26.31, 0.067470, , 
26.34, 0.067175, , 
26.37, 0.066956, , 
26.40, 0.066690, , 
26.43, 0.066481, , 
26.46, 0.066309, , 
26.49, 0.066052, , 
26.52, 0.065799, , 
26.55, 0.065567, , 
26.58, 0.065389, , 
26.61, 0.065253, , 
26.64, 0.065072, , 
26.67, 0.064888, , 
26.70, 0.064806, , 
26.73, 0.064752, , 
26.76, 0.064720, , 
26.79, 0.064698, , 
26.82, 0.064701, , 
26.85, 0.064698, , 
26.88, 0.064669, , 
26.91, 0.064676, , 
26.94, 0.064755, , 
26.97, 0.064860, , 
27.00, 0.064961, , 
27.03, 0.065126, , 
27.06, 0.065253, , 
27.09, 0.065469, , 
27.12, 0.065688, , 
27.15, 0.065992, , 
27.18, 0.066338, , 
27.21, 0.066592, , 
27.24, 0.066928, , 
27.27, 0.067245, , 
27.30, 0.067642, , 
27.33, 0.068105, , 
27.36, 0.068526, , 
27.39, 0.069069, , 
27.42, 0.069637, , 
27.46, 0.070239, , 
27.48, 0.070874, , 
27.51, 0.071603, , 
27.54, 0.072526, , 
27.57, 0.073433, , 
27.60, 0.074401, , 
27.63, 0.075686, , 
27.66, 0.076729, , 
27.69, 0.078264, , 
27.72, 0.079730, , 
27.75, 0.081309, , 
27.78, 0.083257, , 
27.81, 0.085068, , 
27.84, 0.087041, , 
27.87, 0.089204, , 
27.90, 0.091542, , 
27.93, 0.094489, , 
27.96, 0.097207, , 
27.99, 0.100611, , 
28.02, 0.103764, , 
28.05, 0.107085, , 
28.08, 0.110609, , 
28.11, 0.114415, , 
28.15, 0.119154, , 
28.17, 0.123480, , 
28.20, 0.127950, , 
28.23, 0.133389, , 
28.26, 0.137434, , 
28.29, 0.143333, , 
28.32, 0.148535, , 
28.35, 0.153956, , 
28.38, 0.160563, , 
28.41, 0.166416, , 
28.44, 0.173349, , 
28.47, 0.178399, , 
28.50, 0.184477, , 
28.53, 0.191642, , 
28.56, 0.197929, , 
28.59, 0.205376, , 
28.62, 0.211755, , 
28.65, 0.218083, , 
28.68, 0.224427, , 
28.71, 0.230708, , 
28.74, 0.237952, , 
28.77, 0.244045, , 
28.79, 0.248083, 9, 0.587
28.80, 0.250066, , 
28.83, 0.256898, , 
28.86, 0.262649, , 
28.89, 0.268235, , 
28.92, 0.273624, , 
28.95, 0.278867, , 
28.98, 0.284783, , 
29.01, 0.289594, , 
