Gradient Profiler Text Data File: 20240419_MV_A_30.csv
Date: 2024-04-19
Time: 15:13:04

User: jared
Experiment name: 
UV Unit: EM-1
Rotor Manufacturer: Beckman
Rotor Model: SW28.1
Speed: 28 rpm
Gradient: sucrose 10.0% to 50.0% w/v
Time: 4
w2t:  x 10^0
Sample Volume: 18 ml
Number of Tubes: 6
Volume per mm: 0.183 ml/mm

Absorbance Units Full Scale (AUFS): 2.00
Event Mark-triggered gradient; (with distance; auto start and stop)
Delay: No Delay
UV Wavelength: 254 nm
Samples / sec: 10 Hz
EM1 Speed: 0.30 mm/sec
Distance: 3.20 mm
Number: 30
Dead Volume: 0.000000 ml; Distance due to Dead Volume: 0.00 mm
Total Distance: 96.00 mm

Data Columns:
Distance(mm), Absorbance, Fraction Number, Fraction Volume(ml)
0.00, 0.096493, 0, 0.000
0.03, 0.096506, , 
0.06, 0.096478, , 
0.09, 0.096433, , 
0.12, 0.096360, , 
0.15, 0.096370, , 
0.18, 0.096452, , 
0.21, 0.096627, , 
0.24, 0.097077, , 
0.27, 0.097778, , 
0.31, 0.098485, , 
0.33, 0.099040, , 
0.36, 0.099545, , 
0.39, 0.100021, , 
0.42, 0.100649, , 
0.45, 0.101004, , 
0.48, 0.101207, , 
0.51, 0.101477, , 
0.54, 0.101946, , 
0.57, 0.103900, , 
0.60, 0.109365, , 
0.63, 0.126643, , 
0.66, 0.156472, , 
0.69, 0.201155, , 
0.72, 0.257406, , 
0.75, 0.320816, , 
0.78, 0.399508, , 
0.81, 0.469024, , 
0.84, 0.539416, , 
0.87, 0.622600, , 
0.90, 0.694365, , 
0.93, 0.766397, , 
0.96, 0.838764, , 
0.99, 0.911417, , 
1.02, 0.996409, , 
1.05, 1.069304, , 
1.08, 1.153883, , 
1.11, 1.224468, , 
1.14, 1.279428, , 
1.17, 1.344735, , 
1.20, 1.385396, , 
1.23, 1.415574, , 
1.26, 1.430590, , 
1.29, 1.439380, , 
1.32, 1.445495, , 
1.35, 1.448556, , 
1.38, 1.451842, , 
1.41, 1.453993, , 
1.44, 1.455579, , 
1.47, 1.456870, , 
1.50, 1.457364, , 
1.53, 1.457079, , 
1.56, 1.456486, , 
1.59, 1.455242, , 
1.62, 1.452616, , 
1.65, 1.449079, , 
1.68, 1.443484, , 
1.71, 1.437467, , 
1.74, 1.430171, , 
1.77, 1.421522, , 
1.80, 1.411882, , 
1.83, 1.399407, , 
1.86, 1.387585, , 
1.89, 1.374682, , 
1.92, 1.358559, , 
1.95, 1.344076, , 
1.98, 1.329060, , 
2.01, 1.313552, , 
2.04, 1.297461, , 
2.07, 1.277814, , 
2.10, 1.259835, , 
2.13, 1.237486, , 
2.16, 1.217366, , 
2.19, 1.200082, , 
2.22, 1.175208, , 
2.25, 1.153487, , 
2.28, 1.131616, , 
2.31, 1.106022, , 
2.34, 1.083920, , 
2.37, 1.058224, , 
2.40, 1.040109, , 
2.43, 1.018305, , 
2.46, 0.992406, , 
2.49, 0.969810, , 
2.52, 0.943375, , 
2.55, 0.920794, , 
2.58, 0.898466, , 
2.61, 0.876916, , 
2.64, 0.856349, , 
2.67, 0.833575, , 
2.70, 0.815064, , 
2.73, 0.797494, , 
2.76, 0.778333, , 
2.79, 0.762793, , 
2.82, 0.747752, , 
2.85, 0.733129, , 
2.88, 0.718909, , 
2.91, 0.702714, , 
2.94, 0.689141, , 
2.97, 0.673963, , 
3.00, 0.661723, , 
3.03, 0.651912, , 
3.06, 0.638507, , 
3.09, 0.627263, , 
3.12, 0.614458, , 
3.15, 0.603616, , 
3.18, 0.592727, , 
3.18, 0.590925, 1, 0.583
3.21, 0.580423, , 
3.24, 0.571916, , 
3.27, 0.560059, , 
3.30, 0.549899, , 
3.33, 0.540101, , 
3.36, 0.529351, , 
3.39, 0.520438, , 
3.42, 0.510361, , 
3.45, 0.503373, , 
3.48, 0.495161, , 
3.51, 0.485480, , 
3.54, 0.477183, , 
3.57, 0.467914, , 
3.60, 0.460168, , 
3.63, 0.452645, , 
3.66, 0.445298, , 
3.69, 0.438162, , 
3.72, 0.430086, , 
3.75, 0.423253, , 
3.78, 0.416583, , 
3.81, 0.409132, , 
3.84, 0.402836, , 
3.87, 0.396511, , 
3.90, 0.390180, , 
3.93, 0.384064, , 
3.96, 0.377251, , 
3.99, 0.371729, , 
4.02, 0.365673, , 
4.05, 0.360757, , 
4.08, 0.356732, , 
4.11, 0.350876, , 
4.14, 0.345769, , 
4.17, 0.340028, , 
4.20, 0.335229, , 
4.23, 0.330459, , 
4.27, 0.325038, , 
4.29, 0.321228, , 
4.32, 0.316014, , 
4.35, 0.311573, , 
4.38, 0.307418, , 
4.41, 0.302869, , 
4.44, 0.299044, , 
4.47, 0.295260, , 
4.50, 0.291396, , 
4.53, 0.287663, , 
4.56, 0.283197, , 
4.59, 0.279321, , 
4.62, 0.275010, , 
4.65, 0.271419, , 
4.68, 0.268365, , 
4.71, 0.264032, , 
4.74, 0.260517, , 
4.77, 0.256689, , 
4.80, 0.253365, , 
4.83, 0.249948, , 
4.86, 0.246015, , 
4.89, 0.243240, , 
4.92, 0.239224, , 
4.95, 0.235681, , 
4.98, 0.232201, , 
5.01, 0.228195, , 
5.04, 0.224630, , 
5.07, 0.220488, , 
5.10, 0.217614, , 
5.13, 0.214179, , 
5.16, 0.210261, , 
5.19, 0.206921, , 
5.22, 0.203346, , 
5.25, 0.200333, , 
5.28, 0.197355, , 
5.31, 0.194560, , 
5.34, 0.191877, , 
5.37, 0.188838, , 
5.40, 0.186091, , 
5.43, 0.183398, , 
5.46, 0.180385, , 
5.49, 0.177860, , 
5.52, 0.175332, , 
5.55, 0.172804, , 
5.58, 0.170419, , 
5.61, 0.167840, , 
5.64, 0.165496, , 
5.67, 0.162898, , 
5.70, 0.160833, , 
5.73, 0.159149, , 
5.76, 0.156684, , 
5.79, 0.154752, , 
5.82, 0.152697, , 
5.85, 0.150756, , 
5.88, 0.148821, , 
5.92, 0.146851, , 
5.94, 0.145516, , 
5.97, 0.143705, , 
6.00, 0.142074, , 
6.03, 0.140533, , 
6.06, 0.138940, , 
6.09, 0.137551, , 
6.13, 0.135857, , 
6.15, 0.134753, , 
6.18, 0.133510, , 
6.21, 0.132041, , 
6.24, 0.130836, , 
6.27, 0.129780, , 
6.30, 0.128762, , 
6.33, 0.127464, , 
6.36, 0.126281, , 
6.38, 0.125421, 2, 0.586
6.39, 0.125063, , 
6.42, 0.124035, , 
6.45, 0.123033, , 
6.48, 0.121612, , 
6.51, 0.120603, , 
6.54, 0.119417, , 
6.57, 0.118358, , 
6.60, 0.117254, , 
6.63, 0.116125, , 
6.66, 0.115427, , 
6.69, 0.114332, , 
6.72, 0.113409, , 
6.75, 0.112550, , 
6.78, 0.111560, , 
6.81, 0.110701, , 
6.84, 0.109654, , 
6.87, 0.109004, , 
6.90, 0.108331, , 
6.93, 0.107497, , 
6.96, 0.106774, , 
6.99, 0.105971, , 
7.02, 0.105426, , 
7.05, 0.104772, , 
7.08, 0.104131, , 
7.11, 0.103570, , 
7.14, 0.102996, , 
7.17, 0.102393, , 
7.20, 0.101902, , 
7.23, 0.101489, , 
7.26, 0.101013, , 
7.29, 0.100420, , 
7.32, 0.099891, , 
7.35, 0.099342, , 
7.38, 0.098774, , 
7.41, 0.098238, , 
7.44, 0.097699, , 
7.47, 0.097280, , 
7.50, 0.096909, , 
7.53, 0.096284, , 
7.56, 0.095691, , 
7.59, 0.095206, , 
7.62, 0.094657, , 
7.65, 0.094083, , 
7.68, 0.093594, , 
7.71, 0.093134, , 
7.74, 0.092700, , 
7.78, 0.092180, , 
7.80, 0.091961, , 
7.83, 0.091631, , 
7.86, 0.091228, , 
7.89, 0.090755, , 
7.92, 0.090340, , 
7.95, 0.090073, , 
7.99, 0.089693, , 
8.01, 0.089252, , 
8.04, 0.088979, , 
8.07, 0.088735, , 
8.10, 0.088364, , 
8.13, 0.087986, , 
8.16, 0.087771, , 
8.19, 0.087580, , 
8.22, 0.087314, , 
8.25, 0.087025, , 
8.28, 0.086867, , 
8.31, 0.086651, , 
8.34, 0.086324, , 
8.37, 0.085928, , 
8.40, 0.085798, , 
8.43, 0.085588, , 
8.46, 0.085319, , 
8.49, 0.084967, , 
8.52, 0.084799, , 
8.55, 0.084567, , 
8.58, 0.084367, , 
8.61, 0.084031, , 
8.64, 0.083875, , 
8.67, 0.083679, , 
8.70, 0.083368, , 
8.73, 0.083225, , 
8.76, 0.083171, , 
8.79, 0.082978, , 
8.82, 0.082705, , 
8.85, 0.082594, , 
8.88, 0.082584, , 
8.91, 0.082550, , 
8.94, 0.082426, , 
8.97, 0.082331, , 
9.00, 0.082264, , 
9.03, 0.082153, , 
9.06, 0.082080, , 
9.09, 0.082042, , 
9.12, 0.082118, , 
9.15, 0.082074, , 
9.18, 0.081988, , 
9.21, 0.082023, , 
9.24, 0.082134, , 
9.27, 0.082125, , 
9.30, 0.082026, , 
9.33, 0.082010, , 
9.36, 0.082147, , 
9.39, 0.082258, , 
9.42, 0.082321, , 
9.45, 0.082401, , 
9.48, 0.082546, , 
9.51, 0.082537, , 
9.55, 0.082575, , 
9.57, 0.082721, , 
9.59, 0.082848, 3, 0.586
9.60, 0.082937, , 
9.63, 0.083105, , 
9.66, 0.083200, , 
9.69, 0.083511, , 
9.72, 0.083742, , 
9.76, 0.083869, , 
9.78, 0.084072, , 
9.81, 0.084294, , 
9.84, 0.084481, , 
9.87, 0.084595, , 
9.90, 0.084732, , 
9.93, 0.084998, , 
9.97, 0.085195, , 
9.99, 0.085427, , 
10.02, 0.085579, , 
10.05, 0.085839, , 
10.08, 0.086102, , 
10.11, 0.086334, , 
10.14, 0.086546, , 
10.17, 0.086759, , 
10.20, 0.086974, , 
10.23, 0.087216, , 
10.26, 0.087507, , 
10.29, 0.087698, , 
10.32, 0.087885, , 
10.35, 0.087923, , 
10.38, 0.088094, , 
10.41, 0.088392, , 
10.44, 0.088545, , 
10.47, 0.088678, , 
10.50, 0.088805, , 
10.53, 0.088966, , 
10.57, 0.089077, , 
10.59, 0.089144, , 
10.62, 0.089211, , 
10.65, 0.089306, , 
10.68, 0.089382, , 
10.71, 0.089420, , 
10.74, 0.089550, , 
10.77, 0.089817, , 
10.80, 0.089829, , 
10.83, 0.089769, , 
10.86, 0.089699, , 
10.89, 0.089683, , 
10.92, 0.089522, , 
10.95, 0.089439, , 
10.98, 0.089426, , 
11.01, 0.089382, , 
11.04, 0.089227, , 
11.07, 0.089024, , 
11.10, 0.088944, , 
11.13, 0.088830, , 
11.16, 0.088665, , 
11.19, 0.088323, , 
11.22, 0.088183, , 
11.25, 0.088031, , 
11.28, 0.087656, , 
11.31, 0.087342, , 
11.34, 0.087130, , 
11.37, 0.087000, , 
11.40, 0.086638, , 
11.43, 0.086346, , 
11.46, 0.086067, , 
11.49, 0.085779, , 
11.52, 0.085350, , 
11.55, 0.085027, , 
11.58, 0.084776, , 
11.61, 0.084497, , 
11.64, 0.084148, , 
11.67, 0.083809, , 
11.70, 0.083517, , 
11.73, 0.083206, , 
11.76, 0.082740, , 
11.79, 0.082407, , 
11.82, 0.082131, , 
11.85, 0.081750, , 
11.88, 0.081392, , 
11.91, 0.081043, , 
11.94, 0.080796, , 
11.97, 0.080450, , 
12.00, 0.080006, , 
12.03, 0.079650, , 
12.06, 0.079359, , 
12.09, 0.079038, , 
12.12, 0.078550, , 
12.15, 0.078093, , 
12.18, 0.077833, , 
12.21, 0.077440, , 
12.24, 0.077065, , 
12.27, 0.076739, , 
12.30, 0.076466, , 
12.33, 0.076025, , 
12.36, 0.075597, , 
12.39, 0.075340, , 
12.42, 0.075051, , 
12.45, 0.074772, , 
12.48, 0.074429, , 
12.51, 0.074090, , 
12.54, 0.073839, , 
12.57, 0.073583, , 
12.60, 0.073215, , 
12.63, 0.072920, , 
12.66, 0.072771, , 
12.69, 0.072498, , 
12.72, 0.072142, , 
12.75, 0.071949, , 
12.78, 0.071822, , 
12.79, 0.071724, 4, 0.586
12.81, 0.071499, , 
12.84, 0.071245, , 
12.87, 0.071016, , 
12.90, 0.070829, , 
12.93, 0.070515, , 
12.96, 0.070217, , 
12.99, 0.070103, , 
13.02, 0.069906, , 
13.05, 0.069618, , 
13.08, 0.069348, , 
13.11, 0.069148, , 
13.14, 0.069021, , 
13.17, 0.068739, , 
13.20, 0.068495, , 
13.23, 0.068377, , 
13.26, 0.068244, , 
13.29, 0.067990, , 
13.32, 0.067721, , 
13.35, 0.067607, , 
13.38, 0.067419, , 
13.41, 0.067147, , 
13.45, 0.067039, , 
13.47, 0.067048, , 
13.50, 0.066934, , 
13.53, 0.066699, , 
13.56, 0.066582, , 
13.59, 0.066582, , 
13.62, 0.066487, , 
13.65, 0.066398, , 
13.68, 0.066255, , 
13.71, 0.066243, , 
13.74, 0.066078, , 
13.77, 0.065935, , 
13.80, 0.065970, , 
13.83, 0.066062, , 
13.86, 0.065878, , 
13.89, 0.065707, , 
13.92, 0.065631, , 
13.95, 0.065615, , 
13.98, 0.065494, , 
14.01, 0.065427, , 
14.04, 0.065370, , 
14.07, 0.065351, , 
14.10, 0.065180, , 
14.13, 0.065085, , 
14.16, 0.065009, , 
14.19, 0.064872, , 
14.22, 0.064704, , 
14.25, 0.064590, , 
14.28, 0.064562, , 
14.31, 0.064489, , 
14.34, 0.064282, , 
14.38, 0.064149, , 
14.40, 0.064156, , 
14.43, 0.064171, , 
14.46, 0.064029, , 
14.49, 0.063838, , 
14.52, 0.063743, , 
14.55, 0.063670, , 
14.58, 0.063515, , 
14.61, 0.063391, , 
14.64, 0.063312, , 
14.67, 0.063226, , 
14.70, 0.063049, , 
14.73, 0.063010, , 
14.76, 0.063080, , 
14.79, 0.063026, , 
14.82, 0.062807, , 
14.85, 0.062668, , 
14.88, 0.062677, , 
14.91, 0.062633, , 
14.94, 0.062421, , 
14.97, 0.062211, , 
15.00, 0.062176, , 
15.03, 0.062113, , 
15.06, 0.061919, , 
15.09, 0.061770, , 
15.12, 0.061770, , 
15.15, 0.061656, , 
15.18, 0.061555, , 
15.21, 0.061437, , 
15.24, 0.061390, , 
15.27, 0.061222, , 
15.30, 0.061025, , 
15.33, 0.060911, , 
15.36, 0.060885, , 
15.39, 0.060724, , 
15.42, 0.060593, , 
15.45, 0.060632, , 
15.48, 0.060616, , 
15.51, 0.060514, , 
15.54, 0.060333, , 
15.57, 0.060197, , 
15.60, 0.060137, , 
15.63, 0.060115, , 
15.66, 0.060115, , 
15.69, 0.060023, , 
15.72, 0.059816, , 
15.75, 0.059743, , 
15.78, 0.059699, , 
15.81, 0.059651, , 
15.84, 0.059674, , 
15.87, 0.059597, , 
15.90, 0.059493, , 
15.93, 0.059480, , 
15.97, 0.059360, , 
15.99, 0.059245, 5, 0.586
16.00, 0.059195, , 
16.02, 0.059115, , 
16.05, 0.059176, , 
16.08, 0.059198, , 
16.11, 0.059077, , 
16.14, 0.059052, , 
16.17, 0.059207, , 
16.20, 0.059230, , 
16.23, 0.059008, , 
16.26, 0.058979, , 
16.29, 0.059084, , 
16.32, 0.059144, , 
16.35, 0.059084, , 
16.38, 0.059112, , 
16.41, 0.059195, , 
16.44, 0.059207, , 
16.47, 0.059103, , 
16.50, 0.059084, , 
16.53, 0.059141, , 
16.56, 0.059077, , 
16.59, 0.059017, , 
16.62, 0.059071, , 
16.65, 0.059150, , 
16.68, 0.059268, , 
16.71, 0.059347, , 
16.74, 0.059490, , 
16.77, 0.059721, , 
16.80, 0.059829, , 
16.83, 0.059956, , 
16.86, 0.060118, , 
16.89, 0.060308, , 
16.92, 0.060416, , 
16.95, 0.060546, , 
16.98, 0.060768, , 
17.01, 0.060980, , 
17.04, 0.061117, , 
17.07, 0.061437, , 
17.10, 0.061751, , 
17.13, 0.062141, , 
17.16, 0.062351, , 
17.19, 0.062573, , 
17.22, 0.063010, , 
17.25, 0.063274, , 
17.28, 0.063639, , 
17.31, 0.064048, , 
17.34, 0.064460, , 
17.37, 0.064933, , 
17.40, 0.065374, , 
17.43, 0.065954, , 
17.46, 0.066392, , 
17.49, 0.066979, , 
17.52, 0.067467, , 
17.55, 0.068041, , 
17.58, 0.068701, , 
17.61, 0.069354, , 
17.64, 0.069856, , 
17.68, 0.070407, , 
17.70, 0.070915, , 
17.73, 0.071419, , 
17.76, 0.072009, , 
17.79, 0.072602, , 
17.82, 0.073370, , 
17.85, 0.073944, , 
17.88, 0.074410, , 
17.91, 0.074962, , 
17.94, 0.075546, , 
17.97, 0.076228, , 
18.00, 0.076732, , 
18.03, 0.077275, , 
18.06, 0.077858, , 
18.10, 0.078290, , 
18.12, 0.078743, , 
18.15, 0.079254, , 
18.18, 0.079708, , 
18.21, 0.080012, , 
18.24, 0.080278, , 
18.27, 0.080688, , 
18.30, 0.081018, , 
18.33, 0.081443, , 
18.36, 0.081696, , 
18.39, 0.082058, , 
18.42, 0.082264, , 
18.45, 0.082426, , 
18.48, 0.082629, , 
18.51, 0.082762, , 
18.54, 0.082841, , 
18.57, 0.082981, , 
18.60, 0.083200, , 
18.63, 0.083362, , 
18.66, 0.083425, , 
18.69, 0.083406, , 
18.72, 0.083450, , 
18.75, 0.083508, , 
18.78, 0.083438, , 
18.81, 0.083371, , 
18.84, 0.083473, , 
18.87, 0.083530, , 
18.91, 0.083435, , 
18.93, 0.083346, , 
18.96, 0.083206, , 
18.99, 0.083178, , 
19.02, 0.083067, , 
19.05, 0.082971, , 
19.08, 0.082879, , 
19.11, 0.082718, , 
19.14, 0.082524, , 
19.17, 0.082312, , 
19.19, 0.082283, 6, 0.585
19.20, 0.082274, , 
19.23, 0.082083, , 
19.26, 0.081722, , 
19.29, 0.081582, , 
19.32, 0.081455, , 
19.35, 0.081309, , 
19.38, 0.081119, , 
19.41, 0.080843, , 
19.44, 0.080757, , 
19.47, 0.080583, , 
19.50, 0.080298, , 
19.53, 0.080114, , 
19.56, 0.080031, , 
19.59, 0.079844, , 
19.62, 0.079454, , 
19.65, 0.079267, , 
19.68, 0.079086, , 
19.71, 0.078845, , 
19.75, 0.078639, , 
19.77, 0.078432, , 
19.80, 0.078302, , 
19.83, 0.078039, , 
19.86, 0.077731, , 
19.89, 0.077506, , 
19.92, 0.077214, , 
19.95, 0.076916, , 
19.98, 0.076593, , 
20.01, 0.076342, , 
20.04, 0.076209, , 
20.07, 0.075758, , 
20.10, 0.075432, , 
20.13, 0.075330, , 
20.16, 0.075051, , 
20.19, 0.074648, , 
20.22, 0.074363, , 
20.25, 0.074160, , 
20.28, 0.074008, , 
20.31, 0.073611, , 
20.34, 0.073253, , 
20.37, 0.073027, , 
20.40, 0.072812, , 
20.43, 0.072450, , 
20.46, 0.072212, , 
20.49, 0.071965, , 
20.52, 0.071667, , 
20.55, 0.071353, , 
20.58, 0.071048, , 
20.61, 0.070890, , 
20.64, 0.070614, , 
20.67, 0.070211, , 
20.70, 0.069951, , 
20.73, 0.069767, , 
20.76, 0.069437, , 
20.79, 0.069005, , 
20.82, 0.068790, , 
20.85, 0.068603, , 
20.88, 0.068254, , 
20.91, 0.068028, , 
20.94, 0.067794, , 
20.97, 0.067689, , 
21.00, 0.067458, , 
21.03, 0.067061, , 
21.06, 0.066909, , 
21.09, 0.066823, , 
21.12, 0.066680, , 
21.15, 0.066427, , 
21.18, 0.066182, , 
21.21, 0.066081, , 
21.24, 0.065846, , 
21.27, 0.065640, , 
21.30, 0.065618, , 
21.33, 0.065570, , 
21.36, 0.065364, , 
21.39, 0.065167, , 
21.42, 0.065209, , 
21.45, 0.065110, , 
21.48, 0.064882, , 
21.51, 0.064720, , 
21.55, 0.064733, , 
21.57, 0.064723, , 
21.60, 0.064635, , 
21.63, 0.064543, , 
21.66, 0.064539, , 
21.69, 0.064409, , 
21.72, 0.064248, , 
21.76, 0.064178, , 
21.78, 0.064194, , 
21.81, 0.064133, , 
21.84, 0.064108, , 
21.87, 0.064098, , 
21.90, 0.064190, , 
21.93, 0.064159, , 
21.96, 0.064070, , 
21.99, 0.064114, , 
22.02, 0.064200, , 
22.05, 0.064117, , 
22.08, 0.064035, , 
22.12, 0.064133, , 
22.14, 0.064241, , 
22.17, 0.064336, , 
22.20, 0.064432, , 
22.23, 0.064609, , 
22.26, 0.064638, , 
22.29, 0.064660, , 
22.32, 0.064746, , 
22.35, 0.064939, , 
22.38, 0.065167, , 
22.39, 0.065177, 7, 0.586
22.41, 0.065307, , 
22.44, 0.065440, , 
22.47, 0.065688, , 
22.50, 0.066014, , 
22.53, 0.066182, , 
22.56, 0.066423, , 
22.59, 0.066817, , 
22.62, 0.067147, , 
22.65, 0.067486, , 
22.68, 0.067946, , 
22.71, 0.068495, , 
22.74, 0.068961, , 
22.77, 0.069608, , 
22.80, 0.070265, , 
22.83, 0.071013, , 
22.86, 0.071797, , 
22.89, 0.072650, , 
22.92, 0.073827, , 
22.95, 0.074950, , 
22.98, 0.076199, , 
23.01, 0.077671, , 
23.04, 0.079219, , 
23.07, 0.080957, , 
23.10, 0.082730, , 
23.13, 0.084586, , 
23.16, 0.087006, , 
23.19, 0.089338, , 
23.22, 0.092224, , 
23.25, 0.094911, , 
23.29, 0.098045, , 
23.31, 0.101359, , 
23.34, 0.104753, , 
23.37, 0.109051, , 
23.40, 0.113130, , 
23.43, 0.117447, , 
23.46, 0.122602, , 
23.49, 0.126598, , 
23.52, 0.132501, , 
23.55, 0.137843, , 
23.58, 0.143273, , 
23.61, 0.150061, , 
23.64, 0.156173, , 
23.67, 0.163545, , 
23.70, 0.168820, , 
23.73, 0.175383, , 
23.76, 0.183439, , 
23.79, 0.190360, , 
23.82, 0.197250, , 
23.85, 0.205529, , 
23.88, 0.212555, , 
23.91, 0.220773, , 
23.94, 0.226673, , 
23.97, 0.233734, , 
24.00, 0.241927, , 
24.03, 0.248737, , 
24.06, 0.256492, , 
24.09, 0.263039, , 
24.12, 0.269326, , 
24.15, 0.275340, , 
24.18, 0.281224, , 
24.21, 0.287923, , 
24.24, 0.293366, , 
24.27, 0.298498, , 
24.30, 0.303446, , 
24.33, 0.308861, , 
24.36, 0.313225, , 
24.39, 0.318009, , 
24.42, 0.321831, , 
24.45, 0.324825, , 
24.48, 0.328670, , 
24.51, 0.331585, , 
24.54, 0.334715, , 
24.57, 0.337104, , 
24.60, 0.339194, , 
24.63, 0.340964, , 
24.66, 0.342563, , 
24.69, 0.344196, , 
24.72, 0.345262, , 
24.75, 0.346064, , 
24.78, 0.346784, , 
24.81, 0.347235, , 
24.84, 0.347514, , 
24.87, 0.347555, , 
24.90, 0.347520, , 
24.93, 0.347346, , 
24.96, 0.347032, , 
24.99, 0.346512, , 
25.02, 0.345757, , 
25.05, 0.345106, , 
25.08, 0.343968, , 
25.11, 0.342832, , 
25.14, 0.341541, , 
25.17, 0.340368, , 
25.20, 0.338912, , 
25.23, 0.337415, , 
25.26, 0.335879, , 
25.29, 0.333973, , 
25.32, 0.332140, , 
25.35, 0.330233, , 
25.38, 0.328035, , 
25.41, 0.326056, , 
25.44, 0.323848, , 
25.47, 0.321577, , 
25.50, 0.319268, , 
25.53, 0.316512, , 
25.56, 0.313961, , 
25.58, 0.311820, 8, 0.585
25.59, 0.310973, , 
25.62, 0.308528, , 
25.65, 0.306390, , 
25.68, 0.303357, , 
25.71, 0.300861, , 
25.74, 0.297956, , 
25.77, 0.295326, , 
25.80, 0.292500, , 
25.83, 0.289347, , 
25.86, 0.287288, , 
25.89, 0.283990, , 
25.92, 0.281106, , 
25.95, 0.278499, , 
25.98, 0.275628, , 
26.01, 0.272583, , 
26.04, 0.269319, , 
26.07, 0.267093, , 
26.10, 0.264362, , 
26.13, 0.261006, , 
26.16, 0.258123, , 
26.19, 0.254919, , 
26.22, 0.252109, , 
26.25, 0.249108, , 
26.28, 0.246447, , 
26.31, 0.243497, , 
26.34, 0.240268, , 
26.37, 0.237384, , 
26.40, 0.234527, , 
26.43, 0.231313, , 
26.46, 0.228468, , 
26.49, 0.225509, , 
26.52, 0.222714, , 
26.55, 0.220120, , 
26.58, 0.217052, , 
26.61, 0.214296, , 
26.64, 0.211165, , 
26.67, 0.208650, , 
26.70, 0.206560, , 
26.73, 0.203581, , 
26.76, 0.201037, , 
26.79, 0.198208, , 
26.82, 0.195759, , 
26.85, 0.193272, , 
26.88, 0.190535, , 
26.91, 0.188625, , 
26.94, 0.185971, , 
26.97, 0.183684, , 
27.00, 0.181549, , 
27.03, 0.179113, , 
27.06, 0.176975, , 
27.09, 0.174501, , 
27.12, 0.172832, , 
27.15, 0.170739, , 
27.18, 0.168350, , 
27.21, 0.166308, , 
27.24, 0.164103, , 
27.27, 0.162146, , 
27.30, 0.160154, , 
27.33, 0.158305, , 
27.36, 0.156459, , 
27.39, 0.154321, , 
27.42, 0.152354, , 
27.45, 0.150480, , 
27.48, 0.148548, , 
27.51, 0.147178, , 
27.54, 0.145135, , 
27.57, 0.143476, , 
27.60, 0.141979, , 
27.63, 0.140168, , 
27.66, 0.138522, , 
27.69, 0.136726, , 
27.72, 0.135553, , 
27.75, 0.134078, , 
27.78, 0.132273, , 
27.81, 0.130836, , 
27.84, 0.129266, , 
27.87, 0.127889, , 
27.90, 0.126417, , 
27.93, 0.125117, , 
27.96, 0.123889, , 
27.99, 0.122430, , 
28.02, 0.121219, , 
28.05, 0.120032, , 
28.08, 0.118599, , 
28.11, 0.117409, , 
28.14, 0.116201, , 
28.17, 0.115106, , 
28.20, 0.114053, , 
28.23, 0.112746, , 
28.26, 0.111598, , 
28.29, 0.110390, , 
28.32, 0.109330, , 
28.35, 0.108322, , 
28.38, 0.107005, , 
28.41, 0.106019, , 
28.44, 0.104855, , 
28.47, 0.103770, , 
28.50, 0.102787, , 
28.53, 0.101759, , 
28.56, 0.101036, , 
28.59, 0.099944, , 
28.62, 0.099040, , 
28.65, 0.098165, , 
28.68, 0.097147, , 
28.71, 0.096224, , 
28.74, 0.095234, , 
28.77, 0.094524, , 
28.79, 0.094099, 9, 0.586
28.80, 0.093664, , 
28.83, 0.092611, , 
28.86, 0.091859, , 
28.89, 0.091009, , 
28.92, 0.090232, , 
28.95, 0.089388, , 
28.98, 0.088671, , 
29.01, 0.088037, , 
29.04, 0.087254, , 
